B.E.(eV)           Raw Intensity       Peak Sum            Background          3d5/2              3d3/2              Peak 3              Peak 4              Peak 5              Peak 6              difference
 390                2382,2 
 389,9              2345,8 
 389,8              2326 
 389,7              2359,2 
 389,6              2342,6 
 389,5              2334,8 
 389,4              2327 
 389,3              2326 
 389,2              2331,4 
 389,1              2354,8 
 389                2313 
 388,9              2352,2 
 388,8              2375,4 
 388,7              2321,8 
 388,6              2321,6 
 388,5              2315,4 
 388,4              2324,2 
 388,3              2331,4 
 388,2              2298 
 388,1              2308,6 
 388                2358,2 
 387,9              2286,6 
 387,8              2337,8 
 387,7              2305,6 
 387,6              2307,6 
 387,5              2335 
 387,4              2321,2 
 387,3              2300,6 
 387,2              2317,8 
 387,1              2347,6 
 387                2295 
 386,9              2331,6 
 386,8              2303 
 386,7              2324,8 
 386,6              2302,2 
 386,5              2333 
 386,4              2317,8 
 386,3              2291,8 
 386,2              2290 
 386,1              2292,8 
 386                2287,6 
 385,9              2238,6 
 385,8              2286,8 
 385,7              2270,8 
 385,6              2265 
 385,5              2227,2 
 385,4              2259,6 
 385,3              2267 
 385,2              2208,2 
 385,1              2264,6 
 385                2241,4 
 384,9              2224,8 
 384,8              2237,6 
 384,7              2215,2 
 384,6              2247,4 
 384,5              2207,6 
 384,4              2216,8 
 384,3              2213,6 
 384,2              2200,2 
 384,1              2221,4 
 384                2245,8 
 383,9              2173,4 
 383,8              2203,6 
 383,7              2196,6 
 383,6              2215 
 383,5              2203,2 
 383,4              2194,8 
 383,3              2210,2 
 383,2              2173,2 
 383,1              2159,2 
 383                2205 
 382,9              2189,2 
 382,8              2191 
 382,7              2171,8 
 382,6              2193 
 382,5              2189,6 
 382,4              2210,8 
 382,3              2183,8 
 382,2              2161,4 
 382,1              2209,6 
 382                2167,8 
 381,9              2157,4 
 381,8              2149,6 
 381,7              2171,2 
 381,6              2162,4 
 381,5              2185,6 
 381,4              2170,4 
 381,3              2145,6 
 381,2              2186,6 
 381,1              2190 
 381                2148,8 
 380,9              2163 
 380,8              2129 
 380,7              2087 
 380,6              2139 
 380,5              2142,8 
 380,4              2116,2 
 380,3              2111,2 
 380,2              2119,6 
 380,1              2101,8 
 380                2065,4 
 379,9              2089,2 
 379,8              2114,4 
 379,7              2064,8 
 379,6              2074,8 
 379,5              2097,8 
 379,4              2063,4 
 379,3              2077,4 
 379,2              2080,2 
 379,1              2089,4 
 379                2114 
 378,9              2117 
 378,8              2121,2 
 378,7              2118,4 
 378,6              2100,2 
 378,5              2113 
 378,4              2170,2 
 378,3              2171,4 
 378,2              2168,8 
 378,1              2194,2 
 378                2259,8 
 377,9              2252,6 
 377,8              2297 
 377,7              2312,8 
 377,6              2278,2 
 377,5              2315,8 
 377,4              2247 
 377,3              2277,8 
 377,2              2265,2 
 377,1              2274,2 
 377                2258,2              2416,274            2258,2              2285,463            2387,137            2258,785            2258,44             2258,94             2258,508           -158,0745 
 376,9              2239,8              2425,61             2258,2              2286,077            2395,832            2258,792            2258,443            2258,953            2258,513           -185,8101 
 376,8              2277,2              2435,954            2258,29             2286,801            2405,514            2258,889            2258,535            2259,056            2258,607           -158,7542 
 376,7              2257,6              2447,158            2258,197            2287,364            2416,034            2258,803            2258,445            2258,978            2258,52            -189,5576 
 376,6              2302,6              2459,656            2258,2              2288,046            2427,824            2258,813            2258,451            2258,995            2258,528           -157,0562 
 376,5              2297,4              2473,309            2257,984            2288,533            2440,744            2258,605            2258,238            2258,793            2258,317           -175,9094 
 376,4              2343,4              2488,576            2257,792            2289,07             2455,252            2258,42             2258,049            2258,617            2258,131           -145,1758 
 376,3              2302,2              2505,47             2257,376            2289,407            2471,361            2258,011            2257,635            2258,216            2257,719           -203,2703 
 376,2              2431,4              2524,743            2257,158            2289,971            2489,82             2257,801            2257,42             2258,014            2257,507           -93,34277 
 376,1              2442,4              2546,01             2256,31             2289,934            2510,244            2256,961            2256,575            2257,182            2256,665           -103,6096 
 376                2489,8              2570,433            2255,405            2289,87             2533,792            2256,064            2255,672            2256,293            2255,765           -80,63306 
 375,9              2526,2              2598,685            2254,264            2289,602            2561,137            2254,931            2254,535            2255,17             2254,631           -72,48462 
 375,8              2623,6              2632,087            2252,941            2289,186            2593,597            2253,616            2253,215            2253,865            2253,314           -8,486572 
 375,7              2693,8              2672,264            2251,138            2288,324            2632,797            2251,821            2251,414            2252,08             2251,517            21,53613 
 375,6              2803,2              2722,338            2248,984            2287,149            2681,855            2249,676            2249,264            2249,945            2249,369            80,86157 
 375,5              2939,8              2786,589            2246,287            2285,47             2745,05             2246,988            2246,57             2247,267            2246,679            153,2112 
 375,4              3040,4              2871,447            2242,913            2283,155            2828,81             2243,622            2243,199            2243,913            2243,311            168,9529 
 375,3              3201,8              2986,293            2239,032            2280,378            2942,512            2239,751            2239,322            2240,053            2239,438            215,5073 
 375,2              3353,4              3142,979            2234,348            2276,842            3098,009            2235,076            2234,641            2235,39             2234,761            210,4211 
 375,1              3687,6              3356,758            2228,903            2272,594            3310,549            2229,64             2229,199            2229,967            2229,323            330,8423 
 375                3867,2              3643,877            2221,805            2266,744            3596,377            2222,552            2222,105            2222,892            2222,233            223,3228 
 374,9              4250,8              4022,525            2213,8              2260,041            3973,678            2214,556            2214,103            2214,91             2214,235            228,2749 
 374,8              4737,6              4506,568            2203,888            2251,489            4456,316            2204,655            2204,195            2205,023            2204,331            231,0317 
 374,7              5122,8              5103,869            2191,56             2240,58             5052,151            2192,337            2191,87             2192,719            2192,011            18,93066 
 374,6              5687,4              5813,289            2177,298            2227,803            5760,038            2178,085            2177,612            2178,483            2177,758           -125,8892 
 374,5              6585,4              6616,504            2160,219            2212,277            6561,651            2161,017            2160,536            2161,431            2160,687           -31,10449 
 374,4              7240,4              7473,913            2138,688            2192,371            7417,383            2139,496            2139,009            2139,927            2139,165           -233,5132 
 374,3              8180,8              8321,696            2113,864            2169,25             8263,412            2114,684            2114,19             2115,132            2114,351           -140,8965 
 374,2              8769,2              9061,693            2084,345            2141,514            9001,57             2085,176            2084,674            2085,642            2084,84            -292,4932 
 374,1              9434,6              9575,275            2051,818            2110,86             9513,225            2052,661            2052,152            2053,146            2052,324           -140,6758 
 374                9849,6              9750,055            2015,897            2076,903            9685,98             2016,751            2016,234            2017,256            2016,412            99,54492 
 373,9              9857,2              9537,595            1977,781            2040,852            9471,397            1978,647            1978,123            1979,173            1978,306            319,6055 
 373,8              9275,6              8982,116            1939,443            2004,684            8913,688            1940,321            1939,789            1940,869            1939,978            293,4834 
 373,7              8355,2              8195,299            1903,747            1971,272            8124,524            1904,638            1904,098            1905,209            1904,294            159,9014 
 373,6              7572,2              7300,104            1872,357            1942,287            7226,858            1873,26             1872,711            1873,855            1872,915            272,0967 
 373,5              6411,4              6395,289            1844,623            1917,09             6319,441            1845,54             1844,983            1846,159            1845,193            16,11084 
 373,4              5556                5550,298            1822,403            1897,546            5471,704            1823,333            1822,767            1823,979            1822,984            5,702148 
 373,3              4648,8              4803,702            1804,236            1882,206            4722,21             1805,18             1804,605            1805,853            1804,83            -154,9023 
 373,2              3879,4              4174,777            1790,396            1871,353            4090,224            1791,353            1790,769            1792,055            1791,002           -295,3774 
 373,1              3541,4              3665,622            1780,231            1864,351            3577,83             1781,203            1780,61             1781,935            1780,851           -124,2222 
 373                3125,8              3266,532            1771,662            1859,132            3175,31             1772,649            1772,046            1773,412            1772,295           -140,7317 
 372,9              2811,8              2963,427            1765,073            1856,097            2868,569            1766,075            1765,462            1766,871            1765,72            -151,6265 
 372,8              2637,8              2738,494            1759,981            1854,778            2639,778            1760,997            1760,374            1761,828            1760,642           -100,6941 
 372,7              2540                2573,833            1755,709            1854,518            2471,019            1756,741            1756,108            1757,609            1756,385           -33,8335 
 372,6              2447,2              2453,671            1751,893            1854,972            2346,496            1752,941            1752,298            1753,847            1752,585           -6,471436 
 372,5              2283,2              2365,599            1748,51             1856,141            2253,777            1749,574            1748,92             1750,52             1749,217           -82,39893 
 372,4              2284,8              2300,538            1745,909            1858,398            2183,759            1746,989            1746,324            1747,978            1746,632           -15,73755 
 372,3              2219                2250,944            1743,286            1860,968            2128,871            1744,384            1743,708            1745,417            1744,027           -31,94385 
 372,2              2172,4              2212,55             1740,972            1864,21             2084,816            1742,087            1741,399            1743,167            1741,73            -40,15039 
 372,1              2161,4              2182,206            1738,873            1868,069            2048,403            1740,006            1739,306            1741,136            1739,649           -20,80566 
 372                2145,4              2157,781            1736,817            1872,411            2017,466            1737,968            1737,256            1739,15             1737,612           -12,38062 
 371,9              2183                2138,032            1734,829            1877,305            1990,718            1735,999            1735,274            1737,236            1735,644            44,96777 
 371,8              2178                2121,871            1732,648            1882,538            1967,019            1733,837            1733,1              1735,133            1733,484            56,12866 
 371,7              2184                2108,955            1730,481            1888,372            1945,973            1731,69             1730,94             1733,048            1731,338            75,04541 
 371,6              2159                2098,841            1728,275            1894,82             1927,071            1729,504            1728,74             1730,927            1729,153            60,15869 
 371,5              2129,4              2091,42             1726,179            1902,104            1910,13             1727,429            1726,651            1728,921            1727,081            37,97949 
 371,4              2100,8              2086,53             1724,217            1910,328            1894,907            1725,488            1724,696            1727,053            1725,142            14,27026 
 371,3              2035,2              2084,042            1722,385            1919,583            1881,18             1723,678            1722,87             1725,32             1723,335           -48,84253 
 371,2              2031,6              2084,066            1720,863            1930,152            1868,952            1722,178            1721,356            1723,903            1721,838           -52,46594 
 371,1              2015,8              2086,276            1719,351            1941,869            1857,766            1720,689            1719,851            1722,501            1720,353           -70,47583 
 371                1959,2              2090,748            1717,908            1954,933            1847,556            1719,27             1718,416            1721,175            1718,939           -131,5481 
 370,9              1988,2              2097,74             1716,734            1969,711            1838,413            1718,12             1717,25             1720,124            1717,793           -109,5405 
 370,8              1962,8              2106,941            1715,413            1985,982            1829,829            1716,824            1715,937            1718,933            1716,503           -144,1414 
 370,7              1988,4              2118,76             1714,21             2004,235            1821,989            1715,646            1714,742            1717,867            1715,331           -130,3602 
 370,6              1963,4              2133,162            1712,875            2024,505            1814,573            1714,338            1713,416            1716,678            1714,03            -169,7616 
 370,5              1973,8              2150,652            1711,656            2047,357            1807,768            1713,146            1712,205            1715,614            1712,845           -176,8523 
 370,4              2065                2171,403            1710,381            2073,013            1801,351            1711,898            1710,939            1714,502            1711,606           -106,4033 
 370,3              2093,8              2195,464            1708,655            2101,567            1794,882            1710,2              1709,222            1712,951            1709,918           -101,6638 
 370,2              2130,6              2223,71             1706,781            2133,932            1788,626            1708,356            1707,357            1711,263            1708,083           -93,10986 
 370,1              2257                2256,904            1704,719            2170,908            1782,503            1706,324            1705,304            1709,399            1706,062            9,643555E-02 
 370                2284                2295,695            1702,032            2213,171            1776,048            1703,667            1702,627            1706,923            1703,418           -11,69482 
 369,9              2358,2              2342,136            1699,2              2262,802            1769,715            1700,867            1699,805            1704,318            1700,632            16,06421 
 369,8              2484,4              2398,303            1695,994            2321,897            1763,247            1697,694            1696,609            1701,353            1697,473            86,09644 
 369,7              2602,6              2467,33             1692,158            2393,61             1756,371            1693,891            1692,783            1697,776            1693,687            135,2705 
 369,6              2721,6              2554,309            1687,728            2483,053            1749,101            1689,496            1688,364            1693,625            1689,31             167,2915 
 369,5              2957                2666,426            1682,698            2597,427            1741,414            1684,502            1683,344            1688,894            1684,335            290,5737 
 369,4              3099                2813,159            1676,497            2746,219            1732,724            1678,338            1677,155            1683,016            1678,193            285,8408 
