B.E.(eV)           Raw Intensity       Peak Sum            Background          3d5/2              3d3/2              Peak 3              Peak 4              Peak 5              Peak 6              difference
 390                2838,6 
 389,9              2852,6 
 389,8              2899,2 
 389,7              2813,8 
 389,6              2796,2 
 389,5              2878,2 
 389,4              2855,4 
 389,3              2830,6 
 389,2              2827 
 389,1              2829,8 
 389                2803 
 388,9              2832,4 
 388,8              2799,8 
 388,7              2782,8 
 388,6              2814,4 
 388,5              2786,8 
 388,4              2800,4 
 388,3              2780,4 
 388,2              2803,6 
 388,1              2764,8 
 388                2769,4 
 387,9              2781,4 
 387,8              2775,6 
 387,7              2773,4 
 387,6              2765 
 387,5              2796 
 387,4              2780,4 
 387,3              2784 
 387,2              2759 
 387,1              2737,6 
 387                2723 
 386,9              2788,4 
 386,8              2723,6 
 386,7              2768,2 
 386,6              2712,8 
 386,5              2736,8 
 386,4              2697 
 386,3              2735,8 
 386,2              2704 
 386,1              2688,6 
 386                2674 
 385,9              2633,6 
 385,8              2666,8 
 385,7              2666,2 
 385,6              2662,4 
 385,5              2655,4 
 385,4              2635,8 
 385,3              2655,8 
 385,2              2647,8 
 385,1              2615,2 
 385                2538,2 
 384,9              2605,8 
 384,8              2638,2 
 384,7              2590 
 384,6              2588 
 384,5              2588,4 
 384,4              2570 
 384,3              2554,2 
 384,2              2548,6 
 384,1              2561,8 
 384                2548,6 
 383,9              2542 
 383,8              2507,6 
 383,7              2519,6 
 383,6              2556,4 
 383,5              2573,4 
 383,4              2561,4 
 383,3              2531 
 383,2              2542,4 
 383,1              2533,6 
 383                2534 
 382,9              2493,6 
 382,8              2452,2 
 382,7              2501,4 
 382,6              2493,2 
 382,5              2496,4 
 382,4              2439,8 
 382,3              2468,6 
 382,2              2486,8 
 382,1              2462 
 382                2409,4 
 381,9              2450,6 
 381,8              2436,8 
 381,7              2438,2 
 381,6              2443,8 
 381,5              2418,4 
 381,4              2386,8 
 381,3              2416,8 
 381,2              2436 
 381,1              2401 
 381                2435,2 
 380,9              2403,8 
 380,8              2412 
 380,7              2415,8 
 380,6              2396,6 
 380,5              2324,6 
 380,4              2350 
 380,3              2357 
 380,2              2324 
 380,1              2330,2 
 380                2340,8 
 379,9              2315,2 
 379,8              2323,4 
 379,7              2304,4 
 379,6              2298,6 
 379,5              2276 
 379,4              2315,2 
 379,3              2289 
 379,2              2325,6 
 379,1              2303,8 
 379                2316,4 
 378,9              2307,4 
 378,8              2311,8 
 378,7              2353,6 
 378,6              2352 
 378,5              2346 
 378,4              2338,4 
 378,3              2363 
 378,2              2404,8 
 378,1              2381,6 
 378                2433,4 
 377,9              2418,2 
 377,8              2475,2 
 377,7              2409 
 377,6              2438,2 
 377,5              2469 
 377,4              2487,4 
 377,3              2464 
 377,2              2414 
 377,1              2409,8 
 377                2465,6              2554,369            2433,2              2452,681            2533,479            2433,621            2433,373            2433,792            2433,421           -119,1687 
 376,9              2443,8              2559,441            2431,193            2451,109            2538,096            2431,618            2431,367            2431,796            2431,417           -115,6409 
 376,8              2435,2              2565,159            2429,146            2449,513            2543,343            2429,577            2429,323            2429,76             2429,374           -129,959 
 376,7              2414                2571,675            2427,124            2447,955            2549,372            2427,559            2427,302            2427,748            2427,355           -157,6748 
 376,6              2436,4              2579,151            2425,172            2446,486            2556,344            2425,613            2425,353            2425,808            2425,407           -142,7507 
 376,5              2429,4              2587,552            2423,131            2444,942            2564,225            2423,577            2423,313            2423,778            2423,37            -158,1526 
 376,4              2464,8              2597,143            2421,107            2443,435            2573,277            2421,559            2421,292            2421,767            2421,35            -132,343 
 376,3              2452,6              2607,956            2418,946            2441,808            2583,532            2419,403            2419,132            2419,618            2419,193           -155,3562 
 376,2              2506                2620,402            2416,822            2440,238            2595,4              2417,284            2417,01             2417,506            2417,073           -114,4019 
 376,1              2567                2634,558            2414,492            2438,482            2608,957            2414,96             2414,683            2415,19             2414,747           -67,55811 
 376                2603                2650,82             2411,929            2436,515            2624,598            2412,402            2412,121            2412,64             2412,188           -47,82007 
 375,9              2653,4              2669,898            2409,223            2434,427            2643,032            2409,702            2409,417            2409,947            2409,486           -16,4978 
 375,8              2715,2              2692,672            2406,32             2432,166            2665,138            2406,806            2406,517            2407,059            2406,588            22,52832 
 375,7              2766                2720,542            2403,179            2429,691            2692,314            2403,67             2403,378            2403,932            2403,451            45,45776 
 375,6              2838,4              2755,838            2399,838            2427,042            2726,891            2400,336            2400,039            2400,606            2400,115            82,56152 
 375,5              2905,2              2801,985            2396,218            2424,141            2772,289            2396,721            2396,421            2397,001            2396,499            103,2148 
 375,4              3127,6              2864,28             2392,337            2421,01             2833,805            2392,847            2392,543            2393,137            2392,623            263,3203 
 375,3              3246,6              2949,745            2387,62             2417,072            2918,461            2388,136            2387,828            2388,436            2387,911            296,8552 
 375,2              3353                3069,097            2382,446            2412,708            3036,972            2382,969            2382,656            2383,279            2382,742            283,9026 
 375,1              3505,8              3235,741            2376,859            2407,967            3202,738            2377,389            2377,072            2377,71             2377,161            270,0591 
 375                3782,8              3465,183            2370,688            2402,677            3431,267            2371,225            2370,903            2371,556            2370,995            317,6167 
 374,9              3991                3773,748            2363,47             2396,378            3738,878            2364,014            2363,688            2364,357            2363,782            217,2524 
 374,8              4377,4              4177,175            2355,456            2389,323            4141,312            2356,007            2355,676            2356,362            2355,774            200,2251 
 374,7              4765,6              4685,524            2345,984            2380,852            4648,625            2346,543            2346,208            2346,91             2346,308            80,07568 
 374,6              5266,4              5301,492            2335,043            2370,957            5263,511            2335,609            2335,269            2335,99             2335,373           -35,09229 
 374,5              5957,6              6014,312            2322,212            2359,219            5975,198            2322,785            2322,44             2323,179            2322,548           -56,71143 
 374,4              6633                6796,435            2306,778            2344,931            6756,139            2307,359            2307,01             2307,768            2307,121           -163,4351 
 374,3              7401,2              7600,391            2288,792            2328,143            7558,856            2289,381            2289,026            2289,804            2289,141           -199,1904 
 374,2              8103                8353,783            2267,901            2308,507            8310,953            2268,498            2268,138            2268,936            2268,256           -250,7832 
 374,1              8853,2              8961,881            2244,339            2286,261            8917,691            2244,944            2244,579            2245,398            2244,701           -108,6807 
 374                9365,4              9319,688            2217,918            2261,222            9274,076            2218,532            2218,161            2219,003            2218,288            45,71191 
 373,9              9499,8              9349,747            2189,507            2234,26             9302,64             2190,129            2189,752            2190,617            2189,884            150,0527 
 373,8              9419,2              9040,697            2160,494            2206,772            8992,018            2161,125            2160,743            2161,632            2160,878            378,5029 
 373,7              8768,6              8453,755            2131,672            2179,552            8403,427            2132,312            2131,924            2132,837            2132,064            314,8447 
 373,6              8059,8              7691,355            2105,147            2154,715            7639,29             2105,796            2105,403            2106,342            2105,547            368,4448 
 373,5              6932,8              6854,933            2081,144            2132,49             6801,039            2081,802            2081,402            2082,368            2081,552            77,86719 
 373,4              6142,2              6026,171            2061,216            2114,437            5970,35             2061,884            2061,478            2062,472            2061,633            116,0288 
 373,3              5188,6              5259,054            2044,136            2099,335            5201,199            2044,814            2044,401            2045,424            2044,561           -70,4541 
 373,2              4430,4              4587,584            2030,517            2087,806            4527,583            2031,204            2030,785            2031,838            2030,951           -157,1846 
 373,1              3855,2              4025,9              2019,649            2079,15             3963,63             2020,346            2019,921            2021,005            2020,092           -170,7004 
 373                3454                3574,871            2010,866            2072,709            3510,199            2011,574            2011,142            2012,259            2011,319           -120,8713 
 372,9              3057                3225,33             2003,534            2067,858            3158,114            2004,252            2003,813            2004,964            2003,997           -168,3296 
 372,8              2905,8              2962,899            1997,641            2064,598            2892,986            1998,37             1997,924            1999,111            1998,114           -57,09888 
 372,7              2680,8              2770,068            1992,285            2062,039            2697,292            1993,026            1992,572            1993,796            1992,769           -89,26831 
 372,6              2571,6              2630,756            1987,741            2060,47             2554,936            1988,493            1988,031            1989,295            1988,235           -59,15625 
 372,5              2490,6              2530,444            1983,583            2059,482            2451,383            1984,347            1983,878            1985,182            1984,089           -39,84375 
 372,4              2435,4              2457,701            1979,71             2058,988            2375,187            1980,485            1980,008            1981,355            1980,228           -22,30078 
 372,3              2330,6              2403,976            1976,026            2058,912            2317,776            1976,813            1976,329            1977,72             1976,556           -73,37598 
 372,2              2371,2              2363,505            1972,716            2059,46             2273,367            1973,516            1973,023            1974,46             1973,258            7,695068 
 372,1              2332,4              2331,722            1969,243            2060,12             2237,368            1970,056            1969,554            1971,041            1969,799            0,6782227 
 372                2327,4              2306,332            1965,901            2061,211            2207,459            1966,727            1966,217            1967,755            1966,47             21,06787 
 371,9              2331,4              2285,559            1962,566            2062,638            2181,834            1963,405            1962,885            1964,477            1963,148            45,84058 
 371,8              2316,2              2268,326            1959,203            2064,401            2159,38             1960,056            1959,527            1961,175            1959,8              47,87427 
 371,7              2288,2              2254,038            1955,884            2066,606            2139,471            1956,75             1956,213            1957,92             1956,496            34,16187 
 371,6              2283,6              2242,301            1952,656            2069,348            2121,662            1953,537            1952,989            1954,759            1953,283            41,29883 
 371,5              2327,8              2232,738            1949,433            2072,586            2105,532            1950,329            1949,771            1951,607            1950,077            95,06226 
 371,4              2239,6              2224,963            1946,034            2076,194            2090,64             1946,946            1946,378            1948,282            1946,695            14,63721 
 371,3              2250,6              2219,326            1942,95             2080,725            2077,272            1943,876            1943,298            1945,276            1943,628            31,27393 
 371,2              2217,4              2215,369            1939,813            2085,881            2064,9              1940,755            1940,167            1942,221            1940,509            2,03125 
 371,1              2170,6              2213,2              1936,787            2091,913            2053,547            1937,746            1937,146            1939,281            1937,502           -42,6001 
 371                2166,6              2212,853            1933,923            2098,965            2043,15             1934,899            1934,288            1936,508            1934,658           -46,25244 
 370,9              2156,8              2214,181            1931,063            2106,99             2033,455            1932,056            1931,434            1933,745            1931,819           -57,38135 
 370,8              2153                2217,255            1928,229            2116,137            2024,401            1929,24             1928,605            1931,012            1929,006           -64,25537 
 370,7              2122,4              2222,128            1925,399            2126,53             2015,896            1926,427            1925,78             1928,289            1926,198           -99,72803 
 370,6              2131                2229,022            1922,671            2138,455            2007,976            1923,718            1923,058            1925,675            1923,493           -98,02222 
 370,5              2104                2237,952            1919,901            2151,977            2000,444            1920,968            1920,295            1923,026            1920,748           -133,9519 
 370,4              2141,2              2249,261            1917,221            2167,484            1993,387            1918,307            1917,621            1920,473            1918,093           -108,061 
 370,3              2204,8              2262,997            1914,393            2185,064            1986,526            1915,5              1914,799            1917,781            1915,292           -58,19653 
 370,2              2238,6              2279,44             1911,32             2205,03             1979,731            1912,447            1911,733            1914,853            1912,247           -40,84033 
 370,1              2335                2299,249            1908,111            2228,072            1973,077            1909,259            1908,53             1911,798            1909,066            35,75146 
 370                2356                2322,964            1904,533            2254,756            1966,307            1905,704            1904,96             1908,384            1905,519            33,03564 
 369,9              2443,2              2352,03             1900,865            2286,549            1959,674            1902,058            1901,298            1904,892            1901,883            91,17017 
 369,8              2511,4              2387,983            1896,861            2325,008            1952,913            1898,077            1897,302            1901,075            1897,913            123,417 
 369,7              2640                2433,621            1892,59             2372,947            1946,074            1893,831            1893,038            1897,005            1893,677            206,3794 
 369,6              2771,2              2492,924            1887,828            2434,363            1938,915            1889,093            1888,284            1892,459            1888,952            278,2761 
 369,5              2877,6              2572,069            1882,564            2515,445            1931,41             1883,855            1883,027            1887,426            1883,727            305,531 
 369,4              3088,2              2680,028            1876,887            2625,176            1923,636            1878,204            1877,359            1881,998            1878,091            408,1721 
