B.E.(eV)           Raw Intensity       Peak Sum            Background          2p1/2              2p3/2              2p1/2              2p3/2              difference
 925                6858,4 
 924,9              6830,4 
 924,8              6847,2 
 924,7              6880,6 
 924,6              6849,6 
 924,5              6917,2 
 924,4              6809,6 
 924,3              6894 
 924,2              6907,6 
 924,1              6841 
 924                6865,6 
 923,9              6911,8 
 923,8              6877,2 
 923,7              6827,6 
 923,6              6878,4 
 923,5              6836,2 
 923,4              6876 
 923,3              6907,8 
 923,2              6849,6 
 923,1              6831,4 
 923                6857,8 
 922,9              6795,2 
 922,8              6898 
 922,7              6826,8 
 922,6              6819,8 
 922,5              6820,6 
 922,4              6900,4 
 922,3              6848,2 
 922,2              6786,8 
 922,1              6817,2 
 922                6789,4 
 921,9              6794,6 
 921,8              6850,2 
 921,7              6828,2 
 921,6              6731,8 
 921,5              6870,2 
 921,4              6834,4 
 921,3              6857,6 
 921,2              6841,8 
 921,1              6874,2 
 921                6863,6 
 920,9              6824 
 920,8              6779,4 
 920,7              6863,6 
 920,6              6826 
 920,5              6811,8 
 920,4              6832 
 920,3              6732,6 
 920,2              6860,4 
 920,1              6819,8 
 920                6837,6 
 919,9              6791,6 
 919,8              6786 
 919,7              6799,2 
 919,6              6771,6 
 919,5              6839,6 
 919,4              6768,6 
 919,3              6761,6 
 919,2              6792 
 919,1              6824,8 
 919                6730 
 918,9              6755 
 918,8              6864 
 918,7              6767,6 
 918,6              6742,2 
 918,5              6823,8 
 918,4              6769,4 
 918,3              6826,2 
 918,2              6719,2 
 918,1              6813,2 
 918                6739 
 917,9              6795,6 
 917,8              6828,2 
 917,7              6762 
 917,6              6770,4 
 917,5              6766,4 
 917,4              6803,6 
 917,3              6782,4 
 917,2              6744,4 
 917,1              6780,6 
 917                6802,8 
 916,9              6763 
 916,8              6707,4 
 916,7              6815,4 
 916,6              6789 
 916,5              6775,2 
 916,4              6737,6 
 916,3              6797,2 
 916,2              6752,4 
 916,1              6757,4 
 916                6796,6 
 915,9              6752,6 
 915,8              6781 
 915,7              6796 
 915,6              6768,6 
 915,5              6760,4 
 915,4              6708 
 915,3              6760,4 
 915,2              6841,6 
 915,1              6818,6 
 915                6802,6 
 914,9              6839,6 
 914,8              6704,8 
 914,7              6770,4 
 914,6              6730 
 914,5              6726,4 
 914,4              6781,4 
 914,3              6781,4 
 914,2              6717 
 914,1              6725,6 
 914                6672,6 
 913,9              6776,6 
 913,8              6784,4 
 913,7              6746,8 
 913,6              6830 
 913,5              6770,8 
 913,4              6806,8 
 913,3              6693 
 913,2              6738,6 
 913,1              6782,2 
 913                6712,8 
 912,9              6746,6 
 912,8              6728,4 
 912,7              6656,6 
 912,6              6726 
 912,5              6732 
 912,4              6713,2 
 912,3              6737,4 
 912,2              6786,2 
 912,1              6815 
 912                6713,4 
 911,9              6773,8 
 911,8              6712 
 911,7              6785,8 
 911,6              6740,8 
 911,5              6755,6 
 911,4              6776,2 
 911,3              6729 
 911,2              6760 
 911,1              6753,8 
 911                6745,2 
 910,9              6816,8 
 910,8              6850,6 
 910,7              6786,8 
 910,6              6728,6 
 910,5              6774,8 
 910,4              6867,4 
 910,3              6759,4 
 910,2              6715,4 
 910,1              6738,8 
 910                6802,8 
 909,9              6702,8 
 909,8              6756,8 
 909,7              6837,8 
 909,6              6772,2 
 909,5              6772,8 
 909,4              6778,4 
 909,3              6772 
 909,2              6788,6 
 909,1              6790,8 
 909                6755,4 
 908,9              6806,6 
 908,8              6793 
 908,7              6844 
 908,6              6814 
 908,5              6802,2 
 908,4              6784,4 
 908,3              6783 
 908,2              6769,6 
 908,1              6800,2 
 908                6823,6 
 907,9              6781,6 
 907,8              6841 
 907,7              6765 
 907,6              6787,4 
 907,5              6847,4 
 907,4              6749,2 
 907,3              6780,6 
 907,2              6805,2 
 907,1              6811 
 907                6824,6 
 906,9              6812,8 
 906,8              6765,2 
 906,7              6730,4 
 906,6              6788,8 
 906,5              6763 
 906,4              6787,6 
 906,3              6798,2 
 906,2              6754,8 
 906,1              6781,2 
 906                6787 
 905,9              6758,8 
 905,8              6753,4 
 905,7              6731,8 
 905,6              6784,8 
 905,5              6738,6 
 905,4              6757,4 
 905,3              6770 
 905,2              6762,4 
 905,1              6752,2 
 905                6762 
 904,9              6739 
 904,8              6787,4 
 904,7              6772,6 
 904,6              6807,2 
 904,5              6728,6 
 904,4              6731,4 
 904,3              6749,4 
 904,2              6773,4 
 904,1              6720,8 
 904                6790,6 
 903,9              6777,2 
 903,8              6742 
 903,7              6758,4 
 903,6              6702,4 
 903,5              6754,6 
 903,4              6731,6 
 903,3              6702,8 
 903,2              6731 
 903,1              6742,6 
 903                6727,4 
 902,9              6707,4 
 902,8              6667,4 
 902,7              6637,4 
 902,6              6752,4 
 902,5              6738,2 
 902,4              6730,2 
 902,3              6712 
 902,2              6747 
 902,1              6645,4 
 902                6754 
 901,9              6651,4 
 901,8              6671 
 901,7              6754,2 
 901,6              6709,8 
 901,5              6681,8 
 901,4              6746,8 
 901,3              6680,8 
 901,2              6700 
 901,1              6672,6 
 901                6675,4 
 900,9              6652,2 
 900,8              6697,4 
 900,7              6701,8 
 900,6              6639,6 
 900,5              6667,6 
 900,4              6711 
 900,3              6721,8 
 900,2              6716,8 
 900,1              6649,8 
 900                6721,4 
 899,9              6681,2 
 899,8              6679,8 
 899,7              6649,6 
 899,6              6659,4 
 899,5              6651,6 
 899,4              6629 
 899,3              6622 
 899,2              6694,4 
 899,1              6608,6 
 899                6563,6 
 898,9              6626,2 
 898,8              6571,6 
 898,7              6623,4 
 898,6              6638,6 
 898,5              6601,6 
 898,4              6612,4 
 898,3              6627,8 
 898,2              6591,2 
 898,1              6580 
 898                6584,6 
 897,9              6540,8 
 897,8              6631,6 
 897,7              6565,2 
 897,6              6581,4 
 897,5              6593,2 
 897,4              6579,8 
 897,3              6503,6 
 897,2              6570,2 
 897,1              6582 
 897                6579 
 896,9              6655,4 
 896,8              6518,8 
 896,7              6559 
 896,6              6524 
 896,5              6521 
 896,4              6579,2 
 896,3              6563,8 
 896,2              6525,8 
 896,1              6599,2 
 896                6546,2 
 895,9              6546 
 895,8              6519,8 
 895,7              6508 
 895,6              6549,4 
 895,5              6563 
 895,4              6534,4 
 895,3              6533,8 
 895,2              6481,2 
 895,1              6458 
 895                6522,8 
 894,9              6531,8 
 894,8              6497,2 
 894,7              6462,8 
 894,6              6524,4 
 894,5              6515 
 894,4              6458,4 
 894,3              6542 
 894,2              6466,4 
 894,1              6492,8 
 894                6484,4 
 893,9              6542,6 
 893,8              6545,4 
 893,7              6508 
 893,6              6419,8 
 893,5              6454,8 
 893,4              6466,8 
 893,3              6453,2 
 893,2              6454,4 
 893,1              6442 
 893                6431,2 
 892,9              6487,6 
 892,8              6465,8 
 892,7              6508 
 892,6              6451,4 
 892,5              6511,8 
 892,4              6414,6 
 892,3              6501 
 892,2              6458,4 
 892,1              6479,6 
 892                6529 
 891,9              6349 
 891,8              6462,4 
 891,7              6453 
 891,6              6438,2 
 891,5              6475,4 
 891,4              6495,2 
 891,3              6456,4 
 891,2              6429,4 
 891,1              6421,8 
 891                6330,4 
 890,9              6442,4 
 890,8              6454 
 890,7              6439,4 
 890,6              6479,8 
 890,5              6432,2 
 890,4              6417,2 
 890,3              6457,6 
 890,2              6430,6 
 890,1              6404,6 
 890                6489                6469,62             6460                6468,057            6460                6461,47             6460,092           -7,619629 
 889,9              6502,8              6468,342            6457,998            6466,768            6457,998            6459,479            6458,09             34,45801 
 889,8              6483                6467,065            6455,943            6465,479            6455,943            6457,437            6456,037            15,93506 
 889,7              6417,2              6465,864            6453,911            6464,265            6453,911            6455,416            6454,005           -48,66406 
 889,6              6400,2              6464,799            6451,955            6463,188            6451,955            6453,472            6452,05            -64,59912 
 889,5              6461,4              6463,812            6450,018            6462,188            6450,018            6451,546            6450,113           -2,411621 
 889,4              6490,4              6462,812            6448,004            6461,175            6448,004            6449,545            6448,1              27,58838 
 889,3              6397,4              6461,842            6445,953            6460,191            6445,953            6447,506            6446,049           -64,44189 
 889,2              6442,6              6461,049            6444,011            6459,386            6444,011            6445,577            6444,108           -18,44873 
 889,1              6410,6              6460,272            6442,013            6458,596            6442,013            6443,592            6442,111           -49,67236 
 889                6413,6              6459,606            6440,051            6457,917            6440,051            6441,643            6440,149           -46,00586 
 888,9              6389,4              6459,011            6438,083            6457,308            6438,083            6439,688            6438,182           -69,61133 
 888,8              6406,4              6458,524            6436,142            6456,807            6436,142            6437,76             6436,242           -52,12402 
 888,7              6455,8              6458,096            6434,178            6456,365            6434,178            6435,809            6434,279           -2,296387 
 888,6              6426,6              6457,691            6432,152            6455,946            6432,152            6433,796            6432,253           -31,09131 
 888,5              6490                6457,406            6430,159            6455,646            6430,159            6431,816            6430,26             32,59424 
 888,4              6479,2              6457,132            6428,086            6455,358            6428,086            6429,758            6428,189            22,06836 
 888,3              6378                6456,96             6426,024            6455,172            6426,024            6427,71             6426,127           -78,96045 
 888,2              6436,8              6457,001            6424,083            6455,198            6424,083            6425,782            6424,186           -20,20166 
 888,1              6436,2              6457,066            6422,067            6455,248            6422,067            6423,781            6422,172           -20,86621 
 888                6446,6              6457,223            6420,05             6455,39             6420,05             6421,778            6420,155           -10,62305 
 887,9              6512,8              6457,464            6418,018            6455,616            6418,018            6419,76             6418,124            55,33545 
 887,8              6458,4              6457,723            6415,903            6455,859            6415,903            6417,661            6416,009            0,6767578 
 887,7              6468,8              6458,144            6413,852            6456,263            6413,852            6415,625            6413,959            10,65625 
 887,6              6424,6              6458,649            6411,785            6456,753            6411,785            6413,573            6411,893           -34,04932 
 887,5              6418,4              6459,305            6409,769            6457,393            6409,769            6411,572            6409,878           -40,90479 
 887,4              6507,2              6460,065            6407,759            6458,137            6407,759            6409,578            6407,868            47,13525 
 887,3              6469,2              6460,816            6405,638            6458,871            6405,638            6407,473            6405,749            8,384277 
 887,2              6470,6              6461,705            6403,561            6459,744            6403,561            6405,412            6403,672            8,89502 
 887,1              6530,2              6462,689            6401,48             6460,71             6401,48             6403,347            6401,592            67,51074 
 887                6481,8              6463,691            6399,324            6461,695            6399,324            6401,207            6399,437            18,10889 
 886,9              6488                6464,84             6397,224            6462,827            6397,224            6399,124            6397,337            23,16016 
 886,8              6463,4              6466,071            6395,114            6464,04             6395,114            6397,031            6395,228           -2,670898 
 886,7              6537,2              6467,412            6393,031            6465,363            6393,031            6394,965            6393,146            69,78809 
 886,6              6482                6468,745            6390,856            6466,678            6390,856            6392,807            6390,972            13,25488 
 886,5              6498,8              6470,219            6388,746            6468,133            6388,746            6390,714            6388,862            28,58105 
 886,4              6428,4              6471,743            6386,612            6469,639            6386,612            6388,599            6386,73            -43,34326 
 886,3              6486,2              6473,42             6384,562            6471,297            6384,562            6386,566            6384,68             12,78027 
 886,2              6488,2              6475,084            6382,438            6472,942            6382,438            6384,461            6382,557            13,11621 
 886,1              6479,8              6476,803            6380,31             6474,642            6380,31             6382,352            6380,43             2,996582 
 886                6513,6              6478,577            6378,189            6476,396            6378,189            6380,25             6378,311            35,02344 
 885,9              6472,8              6480,349            6376,025            6478,148            6376,025            6378,104            6376,147           -7,549316 
 885,8              6504,8              6482,207            6373,908            6479,985            6373,908            6376,006            6374,03             22,59326 
 885,7              6480                6484,048            6371,749            6481,806            6371,749            6373,867            6371,873           -4,047852 
 885,6              6435,2              6485,939            6369,618            6483,676            6369,618            6371,756            6369,742           -50,73877 
 885,5              6483,6              6487,89             6367,538            6485,606            6367,538            6369,696            6367,664           -4,289551 
 885,4              6470,8              6489,781            6365,397            6487,476            6365,397            6367,576            6365,524           -18,98145 
 885,3              6498,4              6491,681            6363,27             6489,354            6363,27             6365,469            6363,397            6,719238 
 885,2              6452,4              6493,525            6361,106            6491,177            6361,106            6363,326            6361,234           -41,12549 
 885,1              6474,6              6495,399            6358,995            6493,028            6358,995            6361,237            6359,125           -20,79883 
 885                6517,6              6497,204            6356,855            6494,81             6356,855            6359,118            6356,985            20,39648 
 884,9              6523,4              6498,907            6354,66             6496,49             6354,66             6356,945            6354,792            24,49316 
 884,8              6476,6              6500,545            6352,456            6498,106            6352,456            6354,763            6352,588           -23,94531 
 884,7              6469                6502,168            6350,305            6499,706            6350,305            6352,634            6350,438           -33,16846 
 884,6              6514,2              6503,723            6348,161            6501,236            6348,161            6350,514            6348,295            10,47705 
 884,5              6549,2              6505,13             6345,96             6502,619            6345,96             6348,336            6346,095            44,07031 
 884,4              6543,8              6506,392            6343,713            6503,856            6343,713            6346,113            6343,85             37,40771 
 884,3              6515,2              6507,552            6341,471            6504,992            6341,471            6343,894            6341,608            7,647949 
 884,2              6537,4              6508,624            6339,26             6506,037            6339,26             6341,708            6339,398            28,77588 
