B.E.(eV)           Raw Intensity       Peak Sum            Background          2p1/2              Peak 2              Peak 3              Peak 4              2p3/2              difference
 810                10150 
 809,9              10237,4 
 809,8              10233,4 
 809,7              10018,4 
 809,6              10191 
 809,5              10239,8 
 809,4              10138,6 
 809,3              10098,2 
 809,2              10195,6 
 809,1              10128,6 
 809                10228,4 
 808,9              10168,2 
 808,8              10294,2 
 808,7              10240,8 
 808,6              10221,4 
 808,5              10211,8 
 808,4              10235,8 
 808,3              10228,4 
 808,2              10178 
 808,1              10163,4 
 808                10332,4 
 807,9              10275,4 
 807,8              10139,2 
 807,7              10191 
 807,6              10275,8 
 807,5              10215,4 
 807,4              10196,6 
 807,3              10065,8 
 807,2              10198,6 
 807,1              10208,4 
 807                10165,6 
 806,9              10165,4 
 806,8              10162,6 
 806,7              10155,4 
 806,6              10187,2 
 806,5              10112,6 
 806,4              10165,4 
 806,3              10147,4 
 806,2              10162,6 
 806,1              10096 
 806                10075 
 805,9              10143,6 
 805,8              10068,6 
 805,7              10148,6 
 805,6              10053,2 
 805,5              10154,6 
 805,4              10076,8 
 805,3              10072,4 
 805,2              10112 
 805,1              10074 
 805                10049,4 
 804,9              10029 
 804,8              10059,4 
 804,7              10121,4 
 804,6              10075,4 
 804,5              9970,6 
 804,4              10059,4 
 804,3              9963,4 
 804,2              10081,2 
 804,1              9997,4 
 804                10022,8             10050,05            10014,2             10045,91            10014,2             10014,2             10015,5             10017,04           -35,84668 
 803,9              10028,4             10048,88            10009,98            10044,7             10009,98            10009,98            10011,3             10012,84           -20,48438 
 803,8              9979,8              10047,95            10005,75            10043,71            10005,75            10005,75            10007,1             10008,65           -68,14746 
 803,7              9993                10047,24            10001,53            10042,94            10001,53            10001,53            10002,9             10004,46           -54,23633 
 803,6              10002,4             10046,77            9997,311            10042,42            9997,311            9997,311            9998,703            10000,26           -44,36719 
 803,5              9931,8              10046,54            9993,088            10042,14            9993,088            9993,088            9994,506            9996,072           -114,7441 
 803,4              10077,2             10046,58            9988,866            10042,12            9988,866            9988,866            9990,311            9991,881            30,62402 
 803,3              9975                10046,88            9984,644            10042,36            9984,644            9984,644            9986,115            9987,688           -71,87695 
 803,2              10041,6             10047,45            9980,422            10042,88            9980,422            9980,422            9981,922            9983,498           -5,851563 
 803,1              9982                10048,31            9976,199            10043,68            9976,199            9976,199            9977,728            9979,308           -66,3125 
 803                10039               10049,47            9971,977            10044,77            9971,977            9971,977            9973,534            9975,116           -10,4668 
 802,9              10004,6             10050,93            9967,755            10046,17            9967,755            9967,755            9969,343            9970,928           -46,33301 
 802,8              10051,6             10052,73            9963,532            10047,9             9963,532            9963,532            9965,151            9966,738           -1,126953 
 802,7              10018               10054,86            9959,311            10049,97            9959,311            9959,311            9960,962            9962,55            -36,86133 
 802,6              10086               10057,37            9955,088            10052,41            9955,088            9955,088            9956,773            9958,362            28,63281 
 802,5              10036,8             10060,26            9950,866            10055,23            9950,866            9950,866            9952,586            9954,175           -23,46094 
 802,4              10086,8             10063,58            9946,644            10058,48            9946,644            9946,644            9948,398            9949,987            23,21875 
 802,3              10033,4             10067,38            9942,422            10062,21            9942,422            9942,422            9944,213            9945,802           -33,97559 
 802,2              10089               10071,68            9938,199            10066,44            9938,199            9938,199            9940,027            9941,616            17,31738 
 802,1              10086,2             10076,57            9933,978            10071,25            9933,978            9933,978            9935,845            9937,432            9,62793 
 802                9996,8              10082,1             9929,755            10076,7             9929,755            9929,755            9931,662            9933,246           -85,29883 
 801,9              10116,8             10088,35            9925,532            10082,87            9925,532            9925,532            9927,48             9929,062            28,44922 
 801,8              10090               10095,42            9921,311            10089,87            9921,311            9921,311            9923,301            9924,879           -5,423828 
 801,7              10097,2             10103,41            9917,088            10097,76            9917,088            9917,088            9919,122            9920,696           -6,205078 
 801,6              10170,6             10112,42            9912,866            10106,69            9912,866            9912,866            9914,946            9916,515            58,18066 
 801,5              10105               10122,56            9908,644            10116,74            9908,644            9908,644            9910,771            9912,333           -17,56055 
 801,4              10187,2             10133,96            9904,422            10128,05            9904,422            9904,422            9906,597            9908,153            53,24219 
 801,3              10217,4             10146,74            9900,199            10140,74            9900,199            9900,199            9902,425            9903,973            70,66504 
 801,2              10230               10160,98            9895,978            10154,89            9895,978            9895,978            9898,255            9899,794            69,0166 
 801,1              10228,6             10176,82            9891,755            10170,63            9891,755            9891,755            9894,086            9895,615            51,7793 
 801                10251,8             10194,3             9887,533            10188,01            9887,533            9887,533            9889,92             9891,438            57,50195 
 800,9              10208,8             10213,48            9883,311            10207,08            9883,311            9883,311            9885,755            9887,261           -4,676758 
 800,8              10252,4             10234,39            9879,088            10227,89            9879,088            9879,088            9881,592            9883,084            18,01172 
 800,7              10274,6             10256,98            9874,866            10250,37            9874,866            9874,866            9877,432            9878,909            17,62207 
 800,6              10308,4             10281,2             9870,644            10274,48            9870,644            9870,644            9873,273            9874,734            27,19824 
 800,5              10317,6             10306,9             9866,422            10300,07            9866,422            9866,422            9869,118            9870,562            10,69727 
 800,4              10337,2             10333,91            9862,199            10326,95            9862,199            9862,199            9864,965            9866,389            3,291016 
 800,3              10393,8             10362               9857,978            10354,93            9857,978            9857,978            9860,814            9862,217            31,79785 
 800,2              10407,8             10390,84            9853,755            10383,64            9853,755            9853,755            9856,666            9858,046            16,95703 
 800,1              10434               10420,12            9849,533            10412,79            9849,533            9849,533            9852,522            9853,876            13,87891 
 800                10439,2             10449,39            9845,311            10441,93            9845,311            9845,311            9848,38             9849,707           -10,19141 
 799,9              10469,6             10478,23            9841,088            10470,63            9841,089            9841,088            9844,241            9845,538           -8,633789 
 799,8              10418,4             10506,19            9836,866            10498,45            9836,867            9836,866            9840,106            9841,372           -87,79297 
 799,7              10450,8             10532,74            9832,644            10524,85            9832,645            9832,644            9835,975            9837,205           -81,93945 
 799,6              10419,4             10557,41            9828,422            10549,37            9828,423            9828,422            9831,848            9833,041           -138,0137 
 799,5              10607,4             10579,69            9824,199            10571,49            9824,2              9824,199            9827,724            9828,877            27,70898 
 799,4              10570,2             10599,13            9819,978            10590,76            9819,979            9819,978            9823,605            9824,715           -28,92773 
 799,3              10626,8             10615,31            9815,755            10606,77            9815,757            9815,755            9819,49             9820,553            11,49414 
 799,2              10579,8             10627,82            9811,533            10619,11            9811,535            9811,533            9815,381            9816,393           -48,02246 
 799,1              10604,2             10636,38            9807,311            10627,49            9807,313            9807,311            9811,275            9812,233           -32,18457 
 799                10585,4             10640,73            9803,089            10631,66            9803,092            9803,089            9807,177            9808,075           -55,33301 
 798,9              10645,8             10640,71            9798,866            10631,44            9798,87             9798,866            9803,082            9803,919            5,084961 
 798,8              10638,8             10635,71            9794,644            10626,24            9794,647            9794,644            9798,994            9799,763            3,087891 
 798,7              10590,8             10623,56            9790,422            10613,88            9790,427            9790,422            9794,913            9795,609           -32,7627 
 798,6              10637               10604,23            9786,199            10594,33            9786,205            9786,199            9790,838            9791,456            32,76953 
 798,5              10639,2             10578,14            9781,978            10568,02            9781,984            9781,978            9786,771            9787,306            61,05566 
 798,4              10681,8             10545,87            9777,755            10535,5             9777,764            9777,755            9782,712            9783,155            135,9336 
 798,3              10475,2             10508,09            9773,533            10497,48            9773,543            9773,533            9778,661            9779,008           -32,89355 
 798,2              10449,8             10465,7             9769,311            10454,83            9769,322            9769,311            9774,619            9774,86            -15,90039 
 798,1              10545,6             10419,56            9765,089            10408,42            9765,103            9765,089            9770,587            9770,716            126,0439 
 798                10427,8             10370,67            9760,866            10359,25            9760,882            9760,866            9766,564            9766,572            57,13184 
 797,9              10310,6             10319,98            9756,644            10308,27            9756,662            9756,644            9762,553            9762,431           -9,380859 
 797,8              10344               10268,41            9752,422            10256,38            9752,443            9752,422            9758,556            9758,291            75,5918 
 797,7              10273,4             10216,89            9748,199            10204,54            9748,225            9748,199            9754,569            9754,152            56,50684 
 797,6              10178,8             10166,19            9743,978            10153,5             9744,008            9743,979            9750,6              9750,018            12,60547 
 797,5              10191               10117,06            9739,755            10104,01            9739,79             9739,756            9746,644            9745,883            73,93555 
 797,4              10161,2             10070,08            9735,533            10056,64            9735,573            9735,534            9742,707            9741,751            91,12305 
 797,3              10070,2             10025,68            9731,311            10011,84            9731,357            9731,312            9738,789            9737,621            44,51953 
 797,2              10051,2             9984,275            9727,089            9970,009            9727,144            9727,09             9734,895            9733,494            66,9248 
 797,1              9914,4              9946,047            9722,866            9931,325            9722,929            9722,867            9731,022            9729,368           -31,64648 
 797                9880,2              9911,166            9718,645            9895,955            9718,717            9718,646            9727,18             9725,246           -30,96582 
 796,9              9843,2              9879,631            9714,422            9863,896            9714,506            9714,424            9723,367            9721,126           -36,43066 
 796,8              9794                9851,368            9710,199            9835,071            9710,295            9710,201            9719,59             9717,008           -57,36816 
 796,7              9803                9826,286            9705,978            9809,38             9706,088            9705,98             9715,854            9712,894           -23,28613 
 796,6              9783,2              9804,171            9701,755            9786,605            9701,881            9701,758            9712,164            9708,782           -20,9707 
 796,5              9729,6              9784,834            9697,533            9766,55             9697,678            9697,537            9708,528            9704,674           -55,23438 
 796,4              9674,6              9768,017            9693,311            9748,948            9693,476            9693,314            9704,952            9700,568           -93,41699 
 796,3              9726,4              9753,466            9689,089            9733,535            9689,276            9689,094            9701,448            9696,468           -27,06543 
 796,2              9704,2              9740,941            9684,866            9720,062            9685,08             9684,872            9698,022            9692,37            -36,74121 
 796,1              9705,8              9730,19             9680,645            9708,263            9680,888            9680,651            9694,689            9688,277           -24,39063 
 796                9692,6              9720,99             9676,422            9697,903            9676,697            9676,43             9691,46             9684,188           -28,39063 
 795,9              9718,2              9713,134            9672,199            9688,76             9672,511            9672,209            9688,349            9680,103            5,066406 
 795,8              9708,8              9706,433            9667,978            9680,628            9668,329            9667,988            9685,374            9676,023            2,367188 
 795,7              9620,8              9700,73             9663,755            9673,334            9664,151            9663,768            9682,549            9671,948           -79,93066 
 795,6              9591                9695,892            9659,533            9666,722            9659,979            9659,548            9679,895            9667,881           -104,8916 
 795,5              9717,4              9691,801            9655,311            9660,657            9655,813            9655,328            9677,427            9663,818            25,59961 
 795,4              9700,2              9688,367            9651,089            9655,03             9651,651            9651,109            9675,169            9659,763            11,83301 
 795,3              9640,4              9685,521            9646,866            9649,745            9647,496            9646,89             9673,141            9655,715           -45,12109 
 795,2              9636                9683,207            9642,645            9644,729            9643,349            9642,672            9671,36             9651,675           -47,20703 
 795,1              9695,4              9681,383            9638,422            9639,918            9639,207            9638,453            9669,85             9647,643            14,01758 
 795                9632,4              9680,021            9634,2              9635,265            9635,074            9634,236            9668,627            9643,62            -47,62109 
 794,9              9684                9679,102            9629,978            9630,728            9630,949            9630,02             9667,708            9639,607            4,898438 
 794,8              9598,6              9678,614            9625,755            9626,279            9626,833            9625,803            9667,112            9635,606           -80,01465 
 794,7              9657,4              9678,545            9621,533            9621,896            9622,728            9621,588            9666,849            9631,617           -21,14453 
 794,6              9698,8              9678,891            9617,311            9617,56             9618,631            9617,374            9666,928            9627,641            19,90918 
