B.E.(eV)           Raw Intensity       Peak Sum            Background          2p1/2              2p3/2              2p1/2              2p3/2              difference
 925                13475,4 
 924,9              13453 
 924,8              13515,6 
 924,7              13448,8 
 924,6              13424,2 
 924,5              13410,6 
 924,4              13438,4 
 924,3              13316,6 
 924,2              13285,6 
 924,1              13408,6 
 924                13420,6 
 923,9              13397,4 
 923,8              13443 
 923,7              13393 
 923,6              13488 
 923,5              13362 
 923,4              13325,2 
 923,3              13339,8 
 923,2              13306,4 
 923,1              13377 
 923                13410,8 
 922,9              13346,8 
 922,8              13374 
 922,7              13347,8 
 922,6              13427,4 
 922,5              13368 
 922,4              13312,2 
 922,3              13411,8 
 922,2              13353,6 
 922,1              13388,2 
 922                13354 
 921,9              13282,4 
 921,8              13384,6 
 921,7              13246 
 921,6              13239,2 
 921,5              13396,8 
 921,4              13349,4 
 921,3              13352 
 921,2              13430,6 
 921,1              13361,6 
 921                13356,6 
 920,9              13337,8 
 920,8              13246,4 
 920,7              13341,6 
 920,6              13461 
 920,5              13381,4 
 920,4              13327,6 
 920,3              13240,8 
 920,2              13282,4 
 920,1              13339,2 
 920                13247,8 
 919,9              13263,2 
 919,8              13260,6 
 919,7              13332,4 
 919,6              13405 
 919,5              13238,8 
 919,4              13331,8 
 919,3              13248 
 919,2              13358,6 
 919,1              13402 
 919                13404,8 
 918,9              13336,8 
 918,8              13344,6 
 918,7              13305,6 
 918,6              13224,4 
 918,5              13132 
 918,4              13231,6 
 918,3              13314 
 918,2              13388,2 
 918,1              13122,8 
 918                13277 
 917,9              13380,4 
 917,8              13282 
 917,7              13282,6 
 917,6              13301,2 
 917,5              13327,6 
 917,4              13213,4 
 917,3              13319 
 917,2              13185,2 
 917,1              13307,4 
 917                13203,8 
 916,9              13310,6 
 916,8              13288,4 
 916,7              13169,4 
 916,6              13274,2 
 916,5              13256 
 916,4              13216,4 
 916,3              13300,4 
 916,2              13359,6 
 916,1              13194,4 
 916                13277,2 
 915,9              13271 
 915,8              13267,2 
 915,7              13295,4 
 915,6              13302,2 
 915,5              13231 
 915,4              13277,6 
 915,3              13292,8 
 915,2              13260 
 915,1              13256,8 
 915                13278,8 
 914,9              13232,8 
 914,8              13275,2 
 914,7              13285,8 
 914,6              13176,2 
 914,5              13193,8 
 914,4              13315,2 
 914,3              13288,6 
 914,2              13229,6 
 914,1              13410,8 
 914                13298,8 
 913,9              13271,8 
 913,8              13303,4 
 913,7              13271,8 
 913,6              13210,2 
 913,5              13264,2 
 913,4              13264,8 
 913,3              13254 
 913,2              13219 
 913,1              13255,6 
 913                13458,6 
 912,9              13373,2 
 912,8              13284,2 
 912,7              13259,6 
 912,6              13298,8 
 912,5              13482,6 
 912,4              13344,8 
 912,3              13373,4 
 912,2              13431,4 
 912,1              13307,4 
 912                13450 
 911,9              13456,8 
 911,8              13454,6 
 911,7              13386,2 
 911,6              13367,8 
 911,5              13441,4 
 911,4              13383,2 
 911,3              13326,4 
 911,2              13420,8 
 911,1              13273,4 
 911                13432 
 910,9              13314,2 
 910,8              13395,2 
 910,7              13484,4 
 910,6              13363,2 
 910,5              13380,2 
 910,4              13466,4 
 910,3              13407 
 910,2              13455,8 
 910,1              13411,6 
 910                13559,8 
 909,9              13409,4 
 909,8              13398,4 
 909,7              13441 
 909,6              13517,2 
 909,5              13427,8 
 909,4              13424,2 
 909,3              13509,4 
 909,2              13486,2 
 909,1              13429,8 
 909                13495 
 908,9              13392,6 
 908,8              13460,2 
 908,7              13563,4 
 908,6              13505,2 
 908,5              13493,8 
 908,4              13571,2 
 908,3              13505,6 
 908,2              13542,6 
 908,1              13536 
 908                13479,2 
 907,9              13489,6 
 907,8              13424,4 
 907,7              13608,6 
 907,6              13571,6 
 907,5              13581,2 
 907,4              13569,2 
 907,3              13531,6 
 907,2              13547,4 
 907,1              13610,4 
 907                13463,4 
 906,9              13468,2 
 906,8              13551,2 
 906,7              13437,6 
 906,6              13506,4 
 906,5              13521,8 
 906,4              13515,6 
 906,3              13580 
 906,2              13556,8 
 906,1              13507,8 
 906                13547,2 
 905,9              13406 
 905,8              13455,6 
 905,7              13517 
 905,6              13519 
 905,5              13433,8 
 905,4              13541,2 
 905,3              13479,4 
 905,2              13441,4 
 905,1              13518,4 
 905                13358,6 
 904,9              13402,8 
 904,8              13392,2 
 904,7              13450 
 904,6              13340,4 
 904,5              13450,8 
 904,4              13380,6 
 904,3              13433,6 
 904,2              13417,8 
 904,1              13539,6 
 904                13429,8 
 903,9              13467,2 
 903,8              13340,6 
 903,7              13353,6 
 903,6              13427,8 
 903,5              13341,2 
 903,4              13389,4 
 903,3              13540,2 
 903,2              13410,2 
 903,1              13378,4 
 903                13506,6 
 902,9              13329,4 
 902,8              13411,4 
 902,7              13386,6 
 902,6              13492,2 
 902,5              13390,2 
 902,4              13339,4 
 902,3              13361,2 
 902,2              13370,6 
 902,1              13253,4 
 902                13384,8 
 901,9              13377,2 
 901,8              13402,4 
 901,7              13391,2 
 901,6              13325,4 
 901,5              13397 
 901,4              13314,4 
 901,3              13240,6 
 901,2              13269,4 
 901,1              13300,4 
 901                13303,8 
 900,9              13314,6 
 900,8              13325,4 
 900,7              13307,6 
 900,6              13182,4 
 900,5              13268 
 900,4              13271 
 900,3              13237,4 
 900,2              13294,4 
 900,1              13136,4 
 900                13191,8 
 899,9              13126 
 899,8              13222,2 
 899,7              13230,8 
 899,6              13156,8 
 899,5              13140,8 
 899,4              13154 
 899,3              13167,2 
 899,2              13037,6 
 899,1              13131,2 
 899                13097,2 
 898,9              13147 
 898,8              12987,8 
 898,7              13031 
 898,6              12996,2 
 898,5              12997,2 
 898,4              12963,6 
 898,3              13036,6 
 898,2              12929,4 
 898,1              13014,6 
 898                12158,2 
 897,9              12845,4 
 897,8              12942,6 
 897,7              12969,6 
 897,6              12920,2 
 897,5              12978,2 
 897,4              12866,6 
 897,3              12898,6 
 897,2              12813,8 
 897,1              12812,2 
 897                12772,8 
 896,9              12763 
 896,8              12816 
 896,7              12864 
 896,6              12787,2 
 896,5              12777,4 
 896,4              12791,8 
 896,3              12802,4 
 896,2              12737,8 
 896,1              12813,8 
 896                12714,2 
 895,9              12692,8 
 895,8              12764,4 
 895,7              12781,2 
 895,6              12698 
 895,5              12659,2 
 895,4              12709,2 
 895,3              12613,4 
 895,2              12718,4 
 895,1              12580,2 
 895                12579,6             12580,61            12577,6             12578,09            12578,09            12579,62            12577,6            -1,005859 
 894,9              12695,6             12578,68            12575,59            12576,14            12576,09            12577,63            12575,59            116,9238 
 894,8              12612,2             12576,3             12573,14            12573,75            12573,64            12575,18            12573,14            35,89746 
 894,7              12562               12574,25            12570,99            12571,67            12571,5             12573,05            12570,99           -12,24512 
 894,6              12660,6             12572,38            12569,02            12569,79            12569,54            12571,09            12569,02            88,2207 
 894,5              12617,8             12570,14            12566,67            12567,53            12567,19            12568,76            12566,67            47,66113 
 894,4              12538               12568,06            12564,48            12565,43            12565,01            12566,58            12564,48           -30,06152 
 894,3              12587,6             12566,29            12562,58            12563,64            12563,11            12564,69            12562,58            21,30957 
 894,2              12529,4             12564,33            12560,48            12561,67            12561,02            12562,61            12560,48           -34,93359 
 894,1              12650,4             12562,6             12558,6             12559,92            12559,15            12560,75            12558,6             87,7959 
 894                12615               12560,42            12556,25            12557,71            12556,8             12558,41            12556,25            54,58008 
 893,9              12520,4             12558,38            12554,03            12555,65            12554,59            12556,2             12554,03           -37,97754 
 893,8              12648,2             12556,7             12552,16            12553,95            12552,72            12554,34            12552,16            91,49902 
 893,7              12676,8             12554,55            12549,79            12551,78            12550,36            12551,99            12549,79            122,25 
 893,6              12614,6             12552,3             12547,31            12549,51            12547,88            12549,53            12547,31            62,2998 
 893,5              12474               12550,3             12545,05            12547,48            12545,63            12547,29            12545,05           -76,29688 
 893,4              12579,8             12548,84            12543,32            12546,01            12543,91            12545,57            12543,32            30,95801 
 893,3              12659,6             12547               12541,18            12544,14            12541,78            12543,45            12541,18            112,5977 
 893,2              12557,2             12544,88            12538,73            12542               12539,34            12541,01            12538,73            12,32324 
 893,1              12655,6             12543,16            12536,66            12540,26            12537,27            12538,96            12536,66            112,4404 
 893                12573,8             12541,09            12534,21            12538,16            12534,83            12536,52            12534,21            32,70996 
 892,9              12589,4             12539,35            12532,06            12536,4             12532,68            12534,39            12532,06            50,04688 
 892,8              12574,6             12537,59            12529,84            12534,61            12530,47            12532,18            12529,84            37,01367 
 892,7              12635,6             12535,9             12527,67            12532,91            12528,31            12530,03            12527,67            99,69629 
 892,6              12534               12534,02            12525,26            12531               12525,91            12527,64            12525,26           -1,953125E-02 
 892,5              12487,2             12532,56            12523,23            12529,51            12523,88            12525,62            12523,23           -45,35547 
 892,4              12555,2             12531,31            12521,37            12528,24            12522,03            12523,78            12521,37            23,88965 
 892,3              12540,2             12529,85            12519,24            12526,75            12519,91            12521,66            12519,24            10,35449 
 892,2              12482,2             12528,48            12517,16            12525,36            12517,83            12519,6             12517,16           -46,28223 
 892,1              12484,6             12527,39            12515,29            12524,24            12515,98            12517,75            12515,29           -42,79004 
 892                12519,2             12526,34            12513,41            12523,16            12514,1             12515,89            12513,41           -7,137695 
 891,9              12589,8             12525,21            12511,38            12522,01            12512,09            12513,88            12511,38            64,58789 
 891,8              12480,2             12523,88            12509,09            12520,65            12509,8             12511,6             12509,09           -43,67578 
 891,7              12575,4             12523,02            12507,2             12519,76            12507,92            12509,73            12507,2             52,38086 
 891,6              12555,6             12521,87            12504,94            12518,59            12505,67            12507,49            12504,94            33,72852 
 891,5              12631               12520,87            12502,74            12517,56            12503,48            12505,31            12502,74            110,1338 
 891,4              12550,4             12519,65            12500,26            12516,31            12501               12502,85            12500,26            30,74707 
 891,3              12574,2             12518,82            12498,06            12515,46            12498,82            12500,67            12498,06            55,37598 
 891,2              12553               12517,99            12495,78            12514,59            12496,54            12498,4             12495,78            35,00879 
 891,1              12577,6             12517,33            12493,56            12513,9             12494,34            12496,21            12493,56            60,27051 
 891                12488               12516,67            12491,24            12513,21            12492,03            12493,91            12491,24           -28,66797 
 890,9              12570,2             12516,45            12489,25            12512,96            12490,05            12491,94            12489,25            53,75098 
 890,8              12572,8             12516,02            12486,94            12512,5             12487,75            12489,65            12486,94            56,77539 
 890,7              12505,2             12515,7             12484,62            12512,15            12485,44            12487,34            12484,62           -10,5 
 890,6              12618,4             12515,75            12482,54            12512,17            12483,37            12485,29            12482,54            102,6504 
 890,5              12489,4             12515,49            12480,02            12511,88            12480,86            12482,79            12480,02           -26,08887 
 890,4              12545,8             12515,85            12477,98            12512,2             12478,84            12480,78            12477,98            29,95117 
 890,3              12530,8             12516,13            12475,73            12512,45            12476,59            12478,54            12475,73            14,67188 
 890,2              12656,4             12516,6             12473,52            12512,89            12474,4             12476,35            12473,52            139,8008 
 890,1              12539,8             12516,74            12470,82            12512,99            12471,71            12473,68            12470,82            23,05664 
 890                12552,6             12517,47            12468,56            12513,69            12469,46            12471,44            12468,56            35,125 
 889,9              12460,2             12518,31            12466,24            12514,49            12467,16            12469,14            12466,24           -58,1123 
 889,8              12525,4             12519,66            12464,26            12515,81            12465,19            12467,19            12464,26            5,736328 
 889,7              12506,8             12520,93            12462,03            12517,04            12462,97            12464,98            12462,03           -14,13281 
 889,6              12483,6             12522,45            12459,86            12518,52            12460,82            12462,83            12459,86           -38,8457 
 889,5              12562,4             12524,22            12457,77            12520,26            12458,74            12460,76            12457,77            38,17969 
 889,4              12547,6             12525,88            12455,37            12521,87            12456,36            12458,39            12455,37            21,72168 
 889,3              12459               12527,78            12453,02            12523,74            12454,02            12456,06            12453,02           -68,77832 
 889,2              12541               12530,2             12451               12526,12            12452,01            12454,06            12451               10,79785 
 889,1              12581,8             12532,51            12448,65            12528,39            12449,68            12451,75            12448,65            49,28809 
 889                12604,6             12534,86            12446,15            12530,7             12447,19            12449,26            12446,15            69,74121 
 888,9              12535,6             12537,32            12443,54            12533,12            12444,61            12446,69            12443,54           -1,719727 
 888,8              12545,4             12540,25            12441,19            12536               12442,27            12444,36            12441,19            5,15332 
 888,7              12543,8             12543,34            12438,8             12539,05            12439,89            12441,99            12438,8             0,4599609 
 888,6              12552,8             12546,65            12436,4             12542,32            12437,51            12439,62            12436,4             6,150391 
 888,5              12427,4             12550,13            12433,96            12545,75            12435,08            12437,2             12433,96           -122,7295 
