B.E.(eV)           Raw Intensity       Peak Sum            Background          3d5/2              3d3/2              Peak 3              Peak 4              Peak 5              Peak 6              difference
 390                3120 
 389,9              3128 
 389,8              3148,6 
 389,7              3143,4 
 389,6              3096,6 
 389,5              3122,2 
 389,4              3118,6 
 389,3              3143 
 389,2              3107,8 
 389,1              3034,4 
 389                3155,2 
 388,9              3081 
 388,8              3106,4 
 388,7              3057,4 
 388,6              3094,8 
 388,5              3065,6 
 388,4              3053,4 
 388,3              3080,2 
 388,2              3100 
 388,1              3087,4 
 388                3098,4 
 387,9              3084 
 387,8              3085,2 
 387,7              3086,2 
 387,6              3072 
 387,5              3070,2 
 387,4              3086,2 
 387,3              3032 
 387,2              3080,8 
 387,1              3071 
 387                3037,2 
 386,9              3049,2 
 386,8              3023,2 
 386,7              3052,4 
 386,6              3046,6 
 386,5              3052 
 386,4              2988,8 
 386,3              3093,4 
 386,2              3011,4 
 386,1              3012,4 
 386                3014 
 385,9              3027,4 
 385,8              3029,8 
 385,7              3047,8 
 385,6              2992 
 385,5              2975,6 
 385,4              2956,2 
 385,3              2976,8 
 385,2              2955,6 
 385,1              2998,2 
 385                2968 
 384,9              2934,6 
 384,8              2963 
 384,7              2943,4 
 384,6              2947,6 
 384,5              2923,8 
 384,4              2960,4 
 384,3              2924,8 
 384,2              2934,2 
 384,1              2900,2 
 384                2942 
 383,9              2940,4 
 383,8              2902 
 383,7              2908,2 
 383,6              2970 
 383,5              2899,6 
 383,4              2949,6 
 383,3              2935,6 
 383,2              2923,4 
 383,1              2908,2 
 383                2933,2 
 382,9              2909,2 
 382,8              2918,4 
 382,7              2920,8 
 382,6              2890,6 
 382,5              2898,6 
 382,4              2858,6 
 382,3              2893,8 
 382,2              2906,6 
 382,1              2929,6 
 382                2887,4 
 381,9              2911,4 
 381,8              2864,6 
 381,7              2870,4 
 381,6              2896,2 
 381,5              2855 
 381,4              2837 
 381,3              2845 
 381,2              2870,8 
 381,1              2838,4 
 381                2810,4 
 380,9              2810,6 
 380,8              2839,4 
 380,7              2849 
 380,6              2805 
 380,5              2816,2 
 380,4              2779,2 
 380,3              2840,8 
 380,2              2816,6 
 380,1              2801,8 
 380                2755,6 
 379,9              2779,8 
 379,8              2757 
 379,7              2719,8 
 379,6              2751 
 379,5              2780 
 379,4              2767 
 379,3              2754 
 379,2              2781,8 
 379,1              2828,6 
 379                2771,6 
 378,9              2779 
 378,8              2841,8 
 378,7              2788,2 
 378,6              2818,8 
 378,5              2862,2 
 378,4              2905 
 378,3              2891 
 378,2              2947,2 
 378,1              2944,8 
 378                2987 
 377,9              3018 
 377,8              3041 
 377,7              3030,4 
 377,6              3029,8 
 377,5              3037,8 
 377,4              2983 
 377,3              3016,2 
 377,2              2991,6 
 377,1              2943,4 
 377                2910                3139,117            2910                2948,188            3098,365            2910,811            2910,333            2911,034            2910,385           -229,1169 
 376,9              2926,4              3153,126            2910                2949,057            3111,468            2910,821            2910,336            2911,052            2910,391           -226,7258 
 376,8              2929,4              3168,482            2909,922            2949,878            3125,887            2910,752            2910,262            2910,993            2910,319           -239,082 
 376,7              2991                3185,448            2909,829            2950,715            3141,885            2910,669            2910,173            2910,92             2910,233           -194,4485 
 376,6              2982,4              3203,998            2909,443            2951,292            3159,431            2910,293            2909,791            2910,554            2909,853           -221,5984 
 376,5              3064,8              3224,75             2909,097            2951,943            3179,145            2909,957            2909,448            2910,228            2909,513           -159,9502 
 376,4              3110,8              3247,626            2908,357            2952,236            3200,945            2909,227            2908,711            2909,51             2908,78            -136,8259 
 376,3              3116,8              3273,238            2907,395            2952,345            3225,443            2908,276            2907,753            2908,569            2907,824           -156,4377 
 376,2              3177,8              3302,333            2906,399            2952,46             3253,384            2907,291            2906,762            2907,596            2906,836           -124,5327 
 376,1              3244,6              3335,428            2905,109            2952,323            3285,282            2906,012            2905,476            2906,329            2905,553           -90,82813 
 376                3340,8              3373,553            2903,496            2951,905            3322,164            2904,409            2903,866            2904,739            2903,947           -32,75293 
 375,9              3477,2              3418,126            2901,417            2951,069            3365,448            2902,342            2901,792            2902,685            2901,876            59,07349 
 375,8              3524,6              3471,307            2898,68             2949,622            3417,29             2899,617            2899,059            2899,973            2899,146            53,29321 
 375,7              3695,2              3537,076            2895,705            2947,988            3481,668            2896,653            2896,088            2897,024            2896,179            158,1243 
 375,6              3828,8              3620,304            2891,905            2945,583            3563,45             2892,865            2892,293            2893,251            2892,388            208,4963 
 375,5              3953,2              3729,129            2887,452            2942,581            3670,772            2888,425            2887,844            2888,825            2887,943            224,0708 
 375,4              4217,6              3874,903            2882,386            2939,026            3814,981            2883,371            2882,783            2883,788            2882,886            342,697 
 375,3              4395                4072,159            2876,04             2934,253            4010,609            2877,038            2876,441            2877,471            2876,548            322,8406 
 375,2              4561,8              4340,358            2868,82             2928,673            4277,111            2869,831            2869,226            2870,281            2869,337            221,4419 
 375,1              5049,2              4701,954            2860,773            2922,336            4636,938            2861,797            2861,184            2862,265            2861,3              347,2461 
 375                5409,8              5178,625            2850,372            2913,719            5111,767            2851,408            2850,787            2851,896            2850,907            231,1748 
 374,9              5965,2              5791,84             2838,207            2903,416            5723,057            2839,257            2838,627            2839,764            2838,752            173,3604 
 374,8              6688                6554,451            2823,344            2890,5              6483,659            2824,408            2823,769            2824,935            2823,899            133,5488 
 374,7              7355,8              7466,446            2804,975            2874,164            7393,556            2806,053            2805,405            2806,601            2805,54            -110,6465 
 374,6              8344,4              8510,636            2783,344            2854,661            8435,551            2784,438            2783,78             2785,008            2783,921           -166,2354 
 374,5              9534,6              9640,381            2756,913            2830,456            9563                2758,021            2757,353            2758,614            2757,5             -105,7813 
 374,4              10429,4             10773,43            2724,698            2800,574            10693,65            2725,821            2725,144            2726,438            2725,296           -344,0322 
 374,3              11725,8             11785,06            2688,077            2766,399            11702,76            2689,216            2688,529            2689,858            2688,687           -59,25684 
 374,2              12229,2             12508,66            2645,12             2726,006            12423,71            2646,274            2645,577            2646,943            2645,742           -279,457 
 374,1              12866,8             12788,68            2599,566            2683,145            12700,97            2600,737            2600,029            2601,432            2600,2              78,12207 
 374                12816,6             12544,77            2550,766            2637,172            12454,15            2551,952            2551,234            2552,677            2551,412            271,8311 
 373,9              12279,6             11829,81            2501,972            2591,353            11736,14            2503,175            2502,446            2503,929            2502,631            449,7861 
 373,8              11188,2             10793,59            2455,497            2548,008            10696,7             2456,718            2455,977            2457,503            2456,17             394,6133 
 373,7              9670,8              9608,161            2413,99             2509,797            9507,887            2415,228            2414,476            2416,046            2414,677            62,63867 
 373,6              8501,4              8412,023            2379,499            2478,781            8308,185            2380,754            2379,991            2381,607            2380,199            89,37695 
 373,5              7163,6              7295,606            2350,4              2453,35             7188,006            2351,675            2350,899            2352,563            2351,116           -132,0059 
 373,4              6248,8              6312,559            2327,523            2434,346            6200,989            2328,816            2328,029            2329,742            2328,254           -63,75928 
 373,3              5245,8              5484,709            2308,885            2419,803            5368,945            2310,197            2309,397            2311,162            2309,631           -238,9092 
 373,2              4524,4              4815,64             2294,926            2410,177            4695,44             2296,257            2295,444            2297,263            2295,688           -291,2397 
 373,1              4105                4292,428            2284,329            2404,172            4167,529            2285,68             2284,854            2286,729            2285,108           -187,4277 
 373                3669,2              3894,286            2275,675            2400,389            3764,407            2277,047            2276,208            2278,141            2276,471           -225,0864 
 372,9              3491,6              3598,271            2269,052            2398,938            3463,105            2270,444            2269,591            2271,586            2269,865           -106,6714 
 372,8              3314                3380,452            2263,241            2398,626            3239,668            2264,654            2263,787            2265,847            2264,073           -66,45166 
 372,7              3161,6              3220,877            2258,247            2399,485            3074,119            2259,682            2258,801            2260,927            2259,097           -59,27661 
 372,6              3078,6              3103,185            2253,953            2401,43             2950,06             2255,41             2254,514            2256,71             2254,823           -24,58472 
 372,5              2981,6              3014,918            2250,033            2404,171            2855,001            2251,514            2250,603            2252,872            2250,924           -33,31787 
 372,4              2930,2              2947,454            2246,556            2407,813            2780,281            2248,06             2247,133            2249,479            2247,468           -17,25415 
 372,3              2887                2894,65             2243,307            2412,184            2719,715            2244,834            2243,892            2246,319            2244,24            -7,649902 
 372,2              2898,4              2852,558            2240,247            2417,291            2669,309            2241,799            2240,84             2243,351            2241,203            45,84155 
 372,1              2878,6              2818,348            2237,119            2422,935            2626,172            2238,696            2237,72             2240,32             2238,097            60,2522 
 372                2827,4              2790,521            2234,07             2429,323            2588,75             2235,673            2234,68             2237,372            2235,073            36,87866 
 371,9              2890                2768,132            2231,25             2436,67             2556,026            2232,879            2231,868            2234,658            2232,278            121,8682 
 371,8              2856                2749,897            2228,119            2444,515            2526,642            2229,775            2228,747            2231,639            2229,173            106,1033 
 371,7              2813,8              2735,758            2225,134            2453,399            2500,455            2226,818            2225,771            2228,772            2226,215            78,04175 
 371,6              2756,6              2725,384            2222,336            2463,467            2477,025            2224,049            2222,983            2226,097            2223,446            31,21606 
 371,5              2695,8              2718,591            2219,797            2474,902            2456,061            2221,538            2220,453            2223,687            2220,935           -22,79102 
 371,4              2731                2715,226            2217,534            2487,852            2437,278            2219,306            2218,2              2221,56             2218,703            15,77393 
 371,3              2632,2              2714,731            2215,094            2502,009            2419,969            2216,896            2215,769            2219,263            2216,294           -82,53125 
 371,2              2621,8              2717,703            2213,111            2518,178            2404,564            2214,945            2213,797            2217,431            2214,344           -95,90283 
 371,1              2546,6              2723,745            2211,169            2536,148            2390,458            2213,034            2211,865            2215,648            2212,436           -177,1445 
 371                2517                2733,246            2209,575            2556,454            2377,811            2211,473            2210,281            2214,222            2210,878           -216,2461 
 370,9              2547,2              2746,13             2208,113            2579,149            2366,279            2210,046            2208,831            2212,939            2209,453           -198,9302 
 370,8              2517,6              2762,32             2206,501            2604,267            2355,465            2208,469            2207,23             2211,515            2207,88            -244,7195 
 370,7              2581,2              2782,37             2205,023            2632,456            2345,56             2207,026            2205,763            2210,236            2206,442           -201,1697 
 370,6              2577,6              2806,212            2203,235            2663,735            2336,033            2205,275            2203,987            2208,66             2204,697           -228,6116 
 370,5              2646,2              2834,622            2201,456            2698,948            2327,132            2203,533            2202,219            2207,105            2202,961           -188,4216 
 370,4              2711                2867,848            2199,342            2738,406            2318,449            2201,458            2200,118            2205,23             2200,894           -156,8479 
 370,3              2769,2              2906,667            2196,91             2782,941            2309,947            2199,066            2197,698            2203,052            2198,51            -137,4668 
 370,2              2851,4              2952,095            2194,19             2833,613            2301,608            2196,388            2194,991            2200,604            2195,841           -100,6956 
 370,1              2960,2              3005,398            2191,066            2891,732            2293,27             2193,306            2191,881            2197,769            2192,77            -45,19824 
 370                3122,6              3068,324            2187,41             2959,083            2284,767            2189,694            2188,238            2194,422            2189,17             54,27588 
 369,9              3216,2              3143,329            2182,965            3038,151            2275,811            2185,294            2183,807            2190,309            2184,784            72,87061 
 369,8              3373,8              3234,704            2178,054            3133,256            2266,693            2180,429            2178,91             2185,752            2179,934            139,0962 
 369,7              3534,8              3347,921            2172,371            3249,893            2257,082            2174,793            2173,241            2180,449            2174,315            186,8794 
 369,6              3777,6              3491,469            2165,895            3396,574            2246,932            2168,366            2166,781            2174,384            2167,908            286,1313 
 369,5              4086,8              3676,842            2158,234            3584,811            2235,829            2160,756            2159,135            2167,164            2160,319            409,9578 
 369,4              4258,4              3919,928            2149,068            3830,505            2223,434            2151,642            2149,984            2158,474            2151,228            338,4714 
