B.E.(eV)           Raw Intensity       Peak Sum            Background          3d5/2              3d3/2              Peak 3              Peak 4              Peak 5              Peak 6              difference
 390                2152,6 
 389,9              2097 
 389,8              2115,6 
 389,7              2136,2 
 389,6              2110,8 
 389,5              2087,2 
 389,4              2072,6 
 389,3              2100,2 
 389,2              2114,6 
 389,1              2134,8 
 389                2099 
 388,9              2075,2 
 388,8              2077,4 
 388,7              2087,2 
 388,6              2105 
 388,5              2097,4 
 388,4              2052,6 
 388,3              2103,4 
 388,2              2062,6 
 388,1              2083 
 388                2066,2 
 387,9              2087 
 387,8              2055,6 
 387,7              2077,4 
 387,6              2081,4 
 387,5              2038,2 
 387,4              2058,4 
 387,3              2069,2 
 387,2              2065 
 387,1              2040,2 
 387                2066,2 
 386,9              2043,4 
 386,8              2065,2 
 386,7              2040,6 
 386,6              2046,4 
 386,5              2019,4 
 386,4              2035,2 
 386,3              2033,8 
 386,2              2022 
 386,1              2034,4 
 386                2052,6 
 385,9              1999,2 
 385,8              1991,4 
 385,7              2004,6 
 385,6              2001,6 
 385,5              1982,2 
 385,4              1960,4 
 385,3              2025,2 
 385,2              1947,2 
 385,1              1928,8 
 385                1939,6 
 384,9              1945,2 
 384,8              1946,6 
 384,7              1972,8 
 384,6              1919,2 
 384,5              1954,8 
 384,4              1909,2 
 384,3              1972,8 
 384,2              1900 
 384,1              1925,8 
 384                1895,6 
 383,9              1916 
 383,8              1906,6 
 383,7              1911,8 
 383,6              1900,6 
 383,5              1894 
 383,4              1912,2 
 383,3              1876,6 
 383,2              1892,6 
 383,1              1912 
 383                1906,4 
 382,9              1865,2 
 382,8              1886 
 382,7              1875 
 382,6              1918,8 
 382,5              1867 
 382,4              1883,4 
 382,3              1886,6 
 382,2              1876,8 
 382,1              1877 
 382                1824,6 
 381,9              1871,2 
 381,8              1828,4 
 381,7              1815,8 
 381,6              1866,6 
 381,5              1865 
 381,4              1842 
 381,3              1835,6 
 381,2              1858,2 
 381,1              1830 
 381                1774,4 
 380,9              1817,2 
 380,8              1792,4 
 380,7              1784,8 
 380,6              1765 
 380,5              1782,2 
 380,4              1784,6 
 380,3              1780,4 
 380,2              1776,2 
 380,1              1732,8 
 380                1723                1775,42             1723                1733,588            1763,404            1723,294            1723,124            1723,784            1723,225           -52,41992 
 379,9              1774,6              1776,974            1723                1733,766            1764,762            1723,297            1723,125            1723,795            1723,228           -2,374023 
 379,8              1728                1778,393            1722,791            1733,739            1765,981            1723,091            1722,917            1723,597            1723,022           -50,3927 
 379,7              1740,8              1780,079            1722,769            1733,905            1767,461            1723,072            1722,897            1723,587            1723,003           -39,27856 
 379,6              1744,6              1781,798            1722,696            1734,023            1768,97             1723,002            1722,825            1723,526            1722,933           -37,19763 
 379,5              1710,8              1783,591            1722,607            1734,131            1770,547            1722,916            1722,737            1723,448            1722,847           -72,79114 
 379,4              1719                1785,619            1722,655            1734,381            1772,353            1722,968            1722,786            1723,509            1722,898           -66,61877 
 379,3              1745                1787,717            1722,67             1734,603            1774,224            1722,985            1722,802            1723,536            1722,916           -42,71716 
 379,2              1762,2              1789,821            1722,579            1734,725            1776,095            1722,898            1722,713            1723,458            1722,829           -27,62061 
 379,1              1770,6              1791,975            1722,419            1734,783            1778,009            1722,741            1722,554            1723,31             1722,671           -21,37463 
 379                1739,8              1794,223            1722,223            1734,812            1780,012            1722,548            1722,359            1723,128            1722,479           -54,42249 
 378,9              1761,2              1796,734            1722,152            1734,971            1782,271            1722,48             1722,289            1723,07             1722,411           -35,53406 
 378,8              1740,6              1799,308            1721,993            1735,05             1784,585            1722,325            1722,132            1722,926            1722,256           -58,70776 
 378,7              1761,2              1802,126            1721,918            1735,218            1787,137            1722,253            1722,058            1722,864            1722,184           -40,92627 
 378,6              1810,2              1805,037            1721,758            1735,309            1789,775            1722,097            1721,9              1722,719            1722,028            5,163208 
 378,5              1778,6              1807,938            1721,4              1735,208            1792,395            1721,742            1721,542            1722,375            1721,673           -29,3385 
 378,4              1791                1811,174            1721,167            1735,241            1795,341            1721,514            1721,312            1722,159            1721,445           -20,17395 
 378,3              1831,6              1814,583            1720,884            1735,23             1798,453            1721,234            1721,03             1721,891            1721,165            17,01709 
 378,2              1783,8              1818,071            1720,435            1735,062            1801,635            1720,788            1720,582            1721,457            1720,72            -34,27075 
 378,1              1819,4              1822,02             1720,177            1735,094            1805,27             1720,535            1720,326            1721,217            1720,467           -2,620361 
 378                1840,2              1826,118            1719,775            1734,989            1809,043            1720,136            1719,925            1720,83             1720,068            14,08203 
 377,9              1869                1830,452            1719,286            1734,807            1813,044            1719,651            1719,438            1720,359            1719,583            38,54785 
 377,8              1846                1835,022            1718,678            1734,516            1817,271            1719,048            1718,831            1719,769            1718,98             10,97778 
 377,7              1899,8              1840,072            1718,162            1734,325            1821,967            1718,535            1718,316            1719,27             1718,468            59,72766 
 377,6              1886                1845,336            1717,425            1733,924            1826,866            1717,802            1717,581            1718,552            1717,735            40,66406 
 377,5              1880,2              1851,131            1716,74             1733,586            1832,285            1717,122            1716,898            1717,886            1717,055            29,06934 
 377,4              1891,2              1857,478            1716,077            1733,28             1838,245            1716,463            1716,236            1717,242            1716,396            33,72156 
 377,3              1913,2              1864,371            1715,366            1732,939            1844,738            1715,757            1715,527            1716,551            1715,69             48,82886 
 377,2              1895                1871,831            1714,563            1732,517            1851,786            1714,958            1714,726            1715,769            1714,892            23,16882 
 377,1              1895,8              1880,106            1713,831            1732,178            1859,635            1714,23             1713,995            1715,057            1714,165            15,69373 
 377                1876                1889,21             1713,093            1731,846            1868,299            1713,497            1713,259            1714,341            1713,432           -13,21008 
 376,9              1881,8              1899,333            1712,432            1731,606            1877,968            1712,84             1712,599            1713,701            1712,776           -17,53259 
 376,8              1879,8              1910,496            1711,744            1731,353            1888,662            1712,158            1711,914            1713,037            1712,094           -30,6958 
 376,7              1878,2              1922,873            1711,062            1731,12             1900,554            1711,48             1711,233            1712,378            1711,417           -44,67285 
 376,6              1894                1936,642            1710,384            1730,907            1913,822            1710,807            1710,557            1711,723            1710,744           -42,64185 
 376,5              1860,8              1951,932            1709,639            1730,644            1928,594            1710,067            1709,814            1711,003            1710,005           -91,1322 
 376,4              1912,6              1969,185            1709,025            1730,529            1945,31             1709,458            1709,202            1710,415            1709,397           -56,58472 
 376,3              1918,2              1988,346            1708,199            1730,219            1963,915            1708,637            1708,378            1709,614            1708,577           -70,14587 
 376,2              1942,2              2009,95             1707,347            1729,902            1984,944            1707,791            1707,527            1708,789            1707,73            -67,75012 
 376,1              1987,4              2034,375            1706,394            1729,504            2008,773            1706,843            1706,576            1707,863            1706,784           -46,97485 
 376                2022,6              2062,082            1705,253            1728,939            2035,862            1705,708            1705,438            1706,751            1705,65            -39,48206 
 375,9              2073,6              2093,83             1703,965            1728,249            2066,97             1704,425            1704,152            1705,492            1704,368           -20,22998 
 375,8              2099,4              2130,515            1702,465            1727,37             2102,99             1702,931            1702,654            1704,022            1702,875           -31,11548 
 375,7              2207,4              2173,534            1700,854            1726,403            2145,319            1701,326            1701,045            1702,441            1701,271            33,86621 
 375,6              2259,2              2224,405            1698,799            1725,017            2195,473            1699,276            1698,992            1700,417            1699,222            34,79492 
 375,5              2277,2              2285,898            1696,524            1723,439            2256,222            1697,008            1696,719            1698,176            1696,955           -8,697998 
 375,4              2460,8              2361,706            1694,168            1721,807            2331,257            1694,657            1694,365            1695,853            1694,606            99,09375 
 375,3              2545,8              2456,006            1691,056            1719,449            2424,752            1691,552            1691,256            1692,776            1691,502            89,7937 
 375,2              2663,2              2575,557            1687,587            1716,765            2543,465            1688,09             1687,789            1689,343            1688,041            87,64331 
 375,1              2854                2728,402            1683,628            1713,624            2695,439            1684,137            1683,833            1685,42             1684,09             125,5981 
 375                2990                2923,932            1678,878            1709,727            2890,061            1679,394            1679,085            1680,709            1679,348            66,06836 
 374,9              3256,4              3173,29             1673,557            1705,296            3138,472            1674,079            1673,766            1675,427            1674,036            83,11035 
 374,8              3585,4              3487,216            1667,134            1699,801            3451,411            1667,663            1667,345            1669,044            1667,621            98,18433 
 374,7              3906,6              3875,56             1659,349            1692,985            3838,725            1659,885            1659,563            1661,301            1659,845            31,04004 
 374,6              4376,6              4345,697            1650,228            1684,879            4307,787            1650,771            1650,445            1652,223            1650,733            30,90283 
 374,5              4918,4              4897,58             1639,164            1674,874            4858,545            1639,714            1639,383            1641,204            1639,678            20,81982 
 374,4              5412,2              5519,634            1625,855            1662,675            5479,425            1626,413            1626,077            1627,941            1626,38            -107,4336 
 374,3              6076,8              6180,067            1610,489            1648,47             6138,628            1611,054            1610,714            1612,623            1611,023           -103,2671 
 374,2              6595                6814,484            1592,363            1631,561            6771,759            1592,936            1592,59             1594,546            1592,907           -219,4844 
 374,1              7221,8              7324,726            1572,06             1612,534            7280,651            1572,641            1572,29             1574,295            1572,615           -102,9258 
 374                7607,6              7595,467            1549,132            1590,945            7549,979            1549,721            1549,365            1551,419            1549,697            12,13281 
 373,9              7639,8              7549,165            1524,544            1567,765            7502,191            1525,142            1524,78             1526,886            1525,121            90,63477 
 373,8              7376,6              7193,907            1499,726            1544,426            7145,375            1500,332            1499,965            1502,125            1500,315            182,6934 
 373,7              6805,4              6618,381            1475,876            1522,13             6568,212            1476,49             1476,118            1478,334            1476,476            187,019 
 373,6              6177                5938,51             1454,247            1502,14             5886,617            1454,87             1454,492            1456,766            1454,859            238,4902 
 373,5              5398,6              5249,277            1435,08             1484,699            5195,569            1435,712            1435,328            1437,663            1435,705            149,3228 
 373,4              4804,4              4609,794            1418,995            1470,435            4554,174            1419,636            1419,246            1421,643            1419,633            194,606 
 373,3              3959,6              4047,735            1405,255            1458,618            3990,098            1405,906            1405,51             1407,973            1405,907           -88,13477 
 373,2              3371,4              3573,403            1394,889            1450,283            3513,637            1395,549            1395,147            1397,677            1395,554           -202,0034 
 373,1              2984,4              3183,651            1386,868            1444,411            3121,634            1387,538            1387,129            1389,73             1387,547           -199,251 
 373                2651,2              2870,123            1380,384            1440,204            2805,725            1381,064            1380,649            1383,323            1381,079           -218,9231 
 372,9              2380,2              2622,125            1375,227            1437,46             2555,203            1375,917            1375,495            1378,246            1375,936           -241,9246 
 372,8              2233,8              2428,128            1371,148            1435,944            2358,532            1371,849            1371,42             1374,251            1371,873           -194,3281 
 372,7              2106,8              2276,894            1367,647            1435,164            2204,458            1368,359            1367,922            1370,837            1368,389           -170,0935 
 372,6              2040,6              2158,758            1364,647            1435,061            2083,305            1365,37             1364,926            1367,928            1365,406           -118,1583 
 372,5              1942,4              2065,687            1361,904            1435,404            1987,021            1362,638            1362,187            1365,279            1362,68            -123,287 
 372,4              1874,8              1991,655            1359,548            1436,34             1909,565            1360,293            1359,835            1363,022            1360,342           -116,8551 
 372,3              1828,2              1931,912            1357,457            1437,765            1846,168            1358,214            1357,748            1361,034            1358,27            -103,7118 
 372,2              1806,4              1883,011            1355,547            1439,615            1793,364            1356,315            1355,841            1359,231            1356,378           -76,61121 
 372,1              1804,8              1842,412            1353,717            1441,816            1748,585            1354,498            1354,016            1357,514            1354,568           -37,6123 
 372                1784                1808,336            1351,886            1444,31             1710,029            1352,68             1352,189            1355,801            1352,758           -24,33606 
