B.E.(eV)           Raw Intensity       Peak Sum            Background          2p1/2              Peak 2              Peak 3              Peak 4              2p3/2              difference
 810                5583,2 
 809,9              5528,4 
 809,8              5539,2 
 809,7              5486,4 
 809,6              5460,8 
 809,5              5501,6 
 809,4              5528,8 
 809,3              5557,8 
 809,2              5534,6 
 809,1              5454 
 809                5565 
 808,9              5576,2 
 808,8              5574,2 
 808,7              5512 
 808,6              5468,6 
 808,5              5515,8 
 808,4              5540,4 
 808,3              5530 
 808,2              5499,6 
 808,1              5503 
 808                5509 
 807,9              5506,6 
 807,8              5471,8 
 807,7              5525,2 
 807,6              5470,6 
 807,5              5507,2 
 807,4              5483,4 
 807,3              5479,8 
 807,2              5436,2 
 807,1              5473,8 
 807                5476,8 
 806,9              5561,4 
 806,8              5420,4 
 806,7              5502 
 806,6              5514 
 806,5              5499,6 
 806,4              5457,2 
 806,3              5507,2 
 806,2              5396,4 
 806,1              5444,4 
 806                5397,6 
 805,9              5432 
 805,8              5422,4 
 805,7              5416,4 
 805,6              5435,2 
 805,5              5414,6 
 805,4              5407,4 
 805,3              5392,4 
 805,2              5387 
 805,1              5417 
 805                5450,4 
 804,9              5406 
 804,8              5368,2 
 804,7              5388,4 
 804,6              5374,6 
 804,5              5430,2 
 804,4              5388,2 
 804,3              5432,6 
 804,2              5416,6 
 804,1              5407,4 
 804                5353                5414,291            5389,16             5408,804            5389,16             5389,16             5391,019            5392,788           -25,13086 
 803,9              5415,6              5414,042            5386,958            5408,486            5386,958            5386,958            5388,851            5390,623            1,557617 
 803,8              5353,2              5413,936            5384,757            5408,309            5384,757            5384,757            5386,684            5388,457           -60,73584 
 803,7              5397,8              5413,976            5382,555            5408,275            5382,555            5382,555            5384,518            5386,292           -16,17578 
 803,6              5368,8              5414,169            5380,354            5408,395            5380,354            5380,354            5382,353            5384,128           -45,36963 
 803,5              5408,2              5414,52             5378,152            5408,67             5378,152            5378,152            5380,189            5381,965           -6,319824 
 803,4              5375                5415,035            5375,95             5409,107            5375,95             5375,95             5378,026            5379,802           -40,03516 
 803,3              5413,8              5415,722            5373,749            5409,715            5373,749            5373,749            5375,864            5377,64            -1,922363 
 803,2              5416,4              5416,583            5371,547            5410,496            5371,547            5371,547            5373,703            5375,478           -0,1835938 
 803,1              5446,4              5417,631            5369,346            5411,46             5369,346            5369,346            5371,544            5373,318            28,76904 
 803                5422,4              5418,865            5367,144            5412,61             5367,144            5367,144            5369,386            5371,157            3,535156 
 802,9              5352,6              5420,297            5364,942            5413,956            5364,942            5364,942            5367,229            5368,998           -67,69678 
 802,8              5354                5421,938            5362,741            5415,508            5362,741            5362,741            5365,073            5366,838           -67,93848 
 802,7              5371,2              5423,794            5360,539            5417,274            5360,539            5360,539            5362,918            5364,68            -52,59375 
 802,6              5343,2              5425,884            5358,337            5419,271            5358,337            5358,337            5360,766            5362,522           -82,68408 
 802,5              5402,8              5428,219            5356,136            5421,511            5356,136            5356,136            5358,614            5360,365           -25,41895 
 802,4              5418,2              5430,82             5353,934            5424,016            5353,934            5353,934            5356,464            5358,208           -12,62012 
 802,3              5421                5433,716            5351,732            5426,812            5351,732            5351,732            5354,316            5356,053           -12,71582 
 802,2              5460                5436,929            5349,531            5429,922            5349,531            5349,531            5352,17             5353,898            23,07129 
 802,1              5417,8              5440,5              5347,329            5433,389            5347,329            5347,329            5350,025            5351,744           -22,7002 
 802                5467,4              5444,465            5345,127            5437,247            5345,127            5345,127            5347,882            5349,591            22,93457 
 801,9              5392,2              5448,874            5342,926            5441,546            5342,926            5342,926            5345,741            5347,438           -56,67383 
 801,8              5442,4              5453,787            5340,724            5446,347            5340,724            5340,724            5343,602            5345,286           -11,38721 
 801,7              5466,6              5459,258            5338,522            5451,703            5338,522            5338,522            5341,465            5343,135            7,341797 
 801,6              5412,4              5465,364            5336,321            5457,689            5336,321            5336,321            5339,331            5340,985           -52,96387 
 801,5              5472                5472,167            5334,119            5464,371            5334,119            5334,119            5337,198            5338,836           -0,1669922 
 801,4              5416,2              5479,747            5331,918            5471,826            5331,918            5331,918            5335,068            5336,688           -63,54639 
 801,3              5505,2              5488,187            5329,716            5480,138            5329,716            5329,716            5332,941            5334,541            17,01318 
 801,2              5509,2              5497,548            5327,515            5489,367            5327,515            5327,515            5330,816            5332,395            11,65234 
 801,1              5540,4              5507,912            5325,313            5499,595            5325,313            5325,313            5328,694            5330,249            32,48828 
 801                5560,8              5519,319            5323,111            5510,862            5323,111            5323,111            5326,575            5328,104            41,48096 
 800,9              5529,2              5531,818            5320,91             5523,219            5320,91             5320,91             5324,458            5325,961           -2,618164 
 800,8              5535,6              5545,443            5318,708            5536,695            5318,708            5318,708            5322,345            5323,818           -9,842773 
 800,7              5570,2              5560,169            5316,506            5551,27             5316,506            5316,506            5320,235            5321,677            10,03125 
 800,6              5590                5575,987            5314,305            5566,931            5314,305            5314,305            5318,129            5319,537            14,0127 
 800,5              5617                5592,809            5312,103            5583,592            5312,103            5312,103            5316,026            5317,397            24,19092 
 800,4              5604                5610,546            5309,901            5601,163            5309,901            5309,901            5313,927            5315,259           -6,546387 
 800,3              5603,8              5629,074            5307,7              5619,52             5307,7              5307,7              5311,832            5313,122           -25,27441 
 800,2              5661,6              5648,192            5305,498            5638,461            5305,498            5305,498            5309,741            5310,986            13,40771 
 800,1              5659,2              5667,715            5303,296            5657,801            5303,296            5303,296            5307,655            5308,852           -8,514648 
 800                5721,6              5687,371            5301,095            5677,268            5301,095            5301,095            5305,574            5306,718            34,229 
 799,9              5720,6              5706,898            5298,893            5696,601            5298,894            5298,893            5303,497            5304,586            13,70215 
 799,8              5651,6              5726,012            5296,691            5715,513            5296,692            5296,691            5301,426            5302,455           -74,41162 
 799,7              5688,4              5744,374            5294,49             5733,667            5294,491            5294,49             5299,36             5300,326           -55,97412 
 799,6              5766,2              5761,686            5292,289            5750,765            5292,289            5292,289            5297,3              5298,198            4,51416 
 799,5              5772                5777,605            5290,087            5766,461            5290,088            5290,087            5295,246            5296,071           -5,60498 
 799,4              5727,8              5791,833            5287,885            5780,459            5287,886            5287,885            5293,199            5293,945           -64,03369 
 799,3              5776,6              5804,089            5285,684            5792,475            5285,685            5285,684            5291,158            5291,822           -27,48877 
 799,2              5803                5814,093            5283,482            5802,231            5283,483            5283,482            5289,125            5289,699           -11,09277 
 799,1              5907,6              5821,634            5281,28             5809,515            5281,282            5281,28             5287,1              5287,579            85,96631 
 799                5785,2              5826,519            5279,079            5814,133            5279,081            5279,079            5285,082            5285,459           -41,31836 
 798,9              5841,6              5828,623            5276,877            5815,96             5276,879            5276,877            5283,073            5283,341            12,97705 
 798,8              5847                5827,859            5274,675            5814,908            5274,678            5274,675            5281,074            5281,226            19,14063 
 798,7              5847,6              5823,067            5272,474            5809,815            5272,477            5272,474            5279,084            5279,111            24,53271 
 798,6              5798,4              5813,54             5270,272            5799,977            5270,276            5270,272            5277,105            5276,999           -15,14014 
 798,5              5858,4              5799,491            5268,07             5785,602            5268,075            5268,071            5275,137            5274,888            58,90918 
 798,4              5768,2              5781,235            5265,869            5767,007            5265,874            5265,869            5273,181            5272,779           -13,03516 
 798,3              5785                5759,182            5263,667            5744,6              5263,673            5263,667            5271,238            5270,672            25,81787 
 798,2              5807,6              5733,861            5261,465            5718,909            5261,473            5261,466            5269,308            5268,567            73,73926 
 798,1              5650,6              5705,816            5259,264            5690,478            5259,272            5259,264            5267,393            5266,464           -55,21582 
 798                5681,2              5675,689            5257,063            5659,946            5257,073            5257,063            5265,493            5264,364            5,51123 
 797,9              5635,2              5644,092            5254,861            5627,926            5254,873            5254,862            5263,61             5262,265           -8,89209 
 797,8              5622,6              5611,629            5252,659            5595,019            5252,673            5252,66             5261,746            5260,168            10,9707 
 797,7              5602,8              5578,935            5250,458            5561,859            5250,474            5250,458            5259,899            5258,074            23,86523 
 797,6              5567                5546,524            5248,256            5528,959            5248,275            5248,257            5258,075            5255,981            20,47559 
 797,5              5503,6              5514,929            5246,054            5496,849            5246,077            5246,056            5256,272            5253,892           -11,32861 
 797,4              5478,8              5484,553            5243,853            5465,931            5243,879            5243,854            5254,494            5251,805           -5,75293 
 797,3              5498,2              5455,728            5241,651            5436,535            5241,681            5241,653            5252,742            5249,72             42,47217 
 797,2              5451                5428,756            5239,449            5408,96             5239,484            5239,452            5251,018            5247,638            22,24414 
 797,1              5356,6              5403,796            5237,248            5383,363            5237,288            5237,251            5249,326            5245,558           -47,1958 
 797                5350,6              5380,991            5235,046            5359,885            5235,093            5235,05             5247,666            5243,481           -30,39111 
 796,9              5302                5360,376            5232,844            5338,556            5232,898            5232,849            5246,042            5241,408           -58,37598 
 796,8              5358,2              5341,928            5230,643            5319,351            5230,705            5230,648            5244,458            5239,336            16,27197 
 796,7              5342,4              5325,607            5228,441            5302,227            5228,512            5228,447            5242,917            5237,269            16,79297 
 796,6              5261,8              5311,294            5226,239            5287,059            5226,321            5226,247            5241,421            5235,204           -49,49463 
 796,5              5292                5298,875            5224,038            5273,729            5224,131            5224,046            5239,977            5233,142           -6,874512 
 796,4              5261,8              5288,189            5221,836            5262,074            5221,943            5221,846            5238,587            5231,083           -26,38916 
 796,3              5329,6              5279,075            5219,635            5251,923            5219,757            5219,646            5237,258            5229,029            50,52539 
 796,2              5294,8              5271,373            5217,433            5243,116            5217,572            5217,446            5235,994            5226,978            23,42676 
 796,1              5251,2              5264,915            5215,231            5235,475            5215,389            5215,247            5234,8              5224,93            -13,71484 
 796                5284,2              5259,553            5213,03             5228,846            5213,208            5213,047            5233,684            5222,886            24,64746 
 795,9              5236                5255,139            5210,828            5223,076            5211,03             5210,849            5232,651            5220,846           -19,13867 
 795,8              5257,6              5251,542            5208,626            5218,024            5208,854            5208,65             5231,709            5218,81             6,058105 
 795,7              5208,2              5248,652            5206,425            5213,573            5206,682            5206,452            5230,867            5216,778           -40,45215 
 795,6              5294                5246,367            5204,223            5209,611            5204,513            5204,254            5230,131            5214,75             47,6333 
 795,5              5264,4              5244,602            5202,021            5206,047            5202,347            5202,057            5229,51             5212,727            19,79785 
 795,4              5221                5243,29             5199,82             5202,801            5200,185            5199,861            5229,014            5210,708           -22,28955 
 795,3              5226,6              5242,372            5197,618            5199,806            5198,026            5197,665            5228,653            5208,695           -15,77197 
 795,2              5257,4              5241,804            5195,417            5197,007            5195,873            5195,47             5228,434            5206,686            15,5957 
 795,1              5230,4              5241,553            5193,215            5194,361            5193,724            5193,276            5228,369            5204,683           -11,15332 
 795                5234,8              5241,591            5191,013            5191,833            5191,58             5191,083            5228,465            5202,684           -6,791504 
 794,9              5282,4              5241,901            5188,812            5189,392            5189,442            5188,89             5228,732            5200,691            40,49902 
 794,8              5269,8              5242,47             5186,61             5187,017            5187,309            5186,699            5229,179            5198,705            27,33008 
 794,7              5214,4              5243,283            5184,408            5184,691            5185,183            5184,509            5229,808            5196,725           -28,8833 
 794,6              5229,4              5244,337            5182,207            5182,402            5183,063            5182,321            5230,627            5194,751           -14,9375 
